# Energy shift = 0.71
# a_1: -1.951 +- 0.054, a_0: 0.2 +- 1.4, domain: [10.71eV ,14.0eV]
# Y-offset = 0.0+-0.0175, AE = 13.8529+-0.303, Scale Factor = 0.7038+-0.3999, Alpha = 1.7025+-0.6562
# Y-offset = 0.0088+-0.0398, AE = 15.6587+-0.0121, Scale Factor = 21.8573+-0.391, Alpha = 1.2273+-0.0236
# -------------------------------------------------------------
Energy	Counts	Errors	Combined Fit	Fit 1	Fit 2(incl. prev.)	Fit 3(incl. prev.)
10.710000	1.920000	2.296432	nan	-0.051455	 	 
10.720000	0.000000	0.000000	nan	-0.049682	 	 
10.730000	0.000000	0.000000	-0.039076	-0.047909	-0.047909	-0.039076
10.740000	0.000000	0.000000	-0.037303	-0.046136	-0.046136	-0.037303
10.750000	0.240000	1.175755	-0.035530	-0.044363	-0.044363	-0.035530
10.760000	0.080000	0.391918	-0.033757	-0.042589	-0.042589	-0.033757
10.770000	0.080000	0.391918	-0.031983	-0.040816	-0.040816	-0.031983
10.780000	0.000000	0.000000	-0.030210	-0.039043	-0.039043	-0.030210
10.790000	0.160000	0.783837	-0.028437	-0.037270	-0.037270	-0.028437
10.800000	0.000000	0.000000	-0.026664	-0.035496	-0.035496	-0.026664
10.810000	0.160000	0.783837	-0.024890	-0.033723	-0.033723	-0.024890
10.820000	0.000000	0.000000	-0.023117	-0.031950	-0.031950	-0.023117
10.830000	0.000000	0.000000	-0.021344	-0.030177	-0.030177	-0.021344
10.840000	0.000000	0.000000	-0.019571	-0.028403	-0.028403	-0.019571
10.850000	0.000000	0.000000	-0.017797	-0.026630	-0.026630	-0.017797
10.860000	0.160000	0.542586	-0.016024	-0.024857	-0.024857	-0.016024
10.870000	0.000000	0.000000	-0.014251	-0.023084	-0.023084	-0.014251
10.880000	0.080000	0.391918	-0.012478	-0.021310	-0.021310	-0.012478
10.890000	0.000000	0.000000	-0.010704	-0.019537	-0.019537	-0.010704
10.900000	0.000000	0.000000	-0.008931	-0.017764	-0.017764	-0.008931
10.910000	0.000000	0.000000	-0.007158	-0.015991	-0.015991	-0.007158
10.920000	0.080000	0.391918	-0.005385	-0.014217	-0.014217	-0.005385
10.930000	0.000000	0.000000	-0.003611	-0.012444	-0.012444	-0.003611
10.940000	0.080000	0.391918	-0.001838	-0.010671	-0.010671	-0.001838
10.950000	0.000000	0.000000	-0.000065	-0.008898	-0.008898	-0.000065
10.960000	0.000000	0.000000	0.001708	-0.007124	-0.007124	0.001708
10.970000	0.000000	0.000000	0.003482	-0.005351	-0.005351	0.003482
10.980000	0.080000	0.391918	0.005255	-0.003578	-0.003578	0.005255
10.990000	0.000000	0.000000	0.007028	-0.001805	-0.001805	0.007028
11.000000	0.000000	0.000000	0.008801	-0.000032	-0.000032	0.008801
11.010000	0.000000	0.000000	0.010574	0.001742	0.001742	0.010574
11.020000	0.000000	0.000000	0.012348	0.003515	0.003515	0.012348
11.030000	0.000000	0.000000	0.014121	0.005288	0.005288	0.014121
11.040000	0.000000	0.000000	0.015894	0.007061	0.007061	0.015894
11.050000	0.000000	0.000000	0.017667	0.008835	0.008835	0.017667
11.060000	0.000000	0.000000	0.019441	0.010608	0.010608	0.019441
11.070000	0.000000	0.000000	0.021214	0.012381	0.012381	0.021214
11.080000	0.000000	0.000000	0.022987	0.014154	0.014154	0.022987
11.090000	0.000000	0.000000	0.024760	0.015928	0.015928	0.024760
11.100000	0.000000	0.000000	0.026534	0.017701	0.017701	0.026534
11.110000	0.080000	0.391918	0.028307	0.019474	0.019474	0.028307
11.120000	0.240000	1.175755	0.030080	0.021247	0.021247	0.030080
11.130000	0.000000	0.000000	0.031853	0.023021	0.023021	0.031853
11.140000	0.000000	0.000000	0.033627	0.024794	0.024794	0.033627
11.150000	0.080000	0.391918	0.035400	0.026567	0.026567	0.035400
11.160000	0.160000	0.783837	0.037173	0.028340	0.028340	0.037173
11.170000	0.240000	0.861626	0.038946	0.030114	0.030114	0.038946
11.180000	0.160000	0.783837	0.040720	0.031887	0.031887	0.040720
11.190000	0.000000	0.000000	0.042493	0.033660	0.033660	0.042493
11.200000	0.000000	0.000000	0.044266	0.035433	0.035433	0.044266
11.210000	0.240000	0.861626	0.046039	0.037207	0.037207	0.046039
11.220000	0.080000	0.391918	0.047812	0.038980	0.038980	0.047812
11.230000	0.000000	0.000000	0.049586	0.040753	0.040753	0.049586
11.240000	0.080000	0.391918	0.051359	0.042526	0.042526	0.051359
11.250000	0.160000	0.783837	0.053132	0.044299	0.044299	0.053132
11.260000	0.080000	0.391918	0.054905	0.046073	0.046073	0.054905
11.270000	0.080000	0.391918	0.056679	0.047846	0.047846	0.056679
11.280000	0.000000	0.000000	0.058452	0.049619	0.049619	0.058452
11.290000	0.080000	0.391918	0.060225	0.051392	0.051392	0.060225
11.300000	0.320000	1.085173	0.061998	0.053166	0.053166	0.061998
11.310000	0.080000	0.391918	0.063772	0.054939	0.054939	0.063772
11.320000	0.160000	0.542586	0.065545	0.056712	0.056712	0.065545
11.330000	0.000000	0.000000	0.067318	0.058485	0.058485	0.067318
11.340000	0.000000	0.000000	0.069091	0.060259	0.060259	0.069091
11.350000	0.000000	0.000000	0.070865	0.062032	0.062032	0.070865
11.360000	0.080000	0.391918	0.072638	0.063805	0.063805	0.072638
11.370000	0.080000	0.391918	0.074411	0.065578	0.065578	0.074411
11.380000	0.000000	0.000000	0.076184	0.067352	0.067352	0.076184
11.390000	0.000000	0.000000	0.077958	0.069125	0.069125	0.077958
11.400000	0.080000	0.391918	0.079731	0.070898	0.070898	0.079731
11.410000	0.000000	0.000000	0.081504	0.072671	0.072671	0.081504
11.420000	0.160000	0.783837	0.083277	0.074445	0.074445	0.083277
11.430000	0.000000	0.000000	0.085051	0.076218	0.076218	0.085051
11.440000	0.080000	0.391918	0.086824	0.077991	0.077991	0.086824
11.450000	0.240000	0.649923	0.088597	0.079764	0.079764	0.088597
11.460000	0.000000	0.000000	0.090370	0.081537	0.081537	0.090370
11.470000	0.000000	0.000000	0.092143	0.083311	0.083311	0.092143
11.480000	0.000000	0.000000	0.093917	0.085084	0.085084	0.093917
11.490000	0.000000	0.000000	0.095690	0.086857	0.086857	0.095690
11.500000	0.000000	0.000000	0.097463	0.088630	0.088630	0.097463
11.510000	0.080000	0.391918	0.099236	0.090404	0.090404	0.099236
11.520000	0.000000	0.000000	0.101010	0.092177	0.092177	0.101010
11.530000	0.080000	0.391918	0.102783	0.093950	0.093950	0.102783
11.540000	0.000000	0.000000	0.104556	0.095723	0.095723	0.104556
11.550000	0.080000	0.391918	0.106329	0.097497	0.097497	0.106329
11.560000	0.000000	0.000000	0.108103	0.099270	0.099270	0.108103
11.570000	0.080000	0.391918	0.109876	0.101043	0.101043	0.109876
11.580000	0.240000	0.861626	0.111649	0.102816	0.102816	0.111649
11.590000	0.160000	0.542586	0.113422	0.104590	0.104590	0.113422
11.600000	0.160000	0.542586	0.115196	0.106363	0.106363	0.115196
11.610000	0.000000	0.000000	0.116969	0.108136	0.108136	0.116969
11.620000	0.000000	0.000000	0.118742	0.109909	0.109909	0.118742
11.630000	0.160000	0.783837	0.120515	0.111683	0.111683	0.120515
11.640000	0.000000	0.000000	0.122289	0.113456	0.113456	0.122289
11.650000	0.160000	0.542586	0.124062	0.115229	0.115229	0.124062
11.660000	0.000000	0.000000	0.125835	0.117002	0.117002	0.125835
11.670000	0.160000	0.542586	0.127608	0.118776	0.118776	0.127608
11.680000	0.160000	0.542586	0.129382	0.120549	0.120549	0.129382
11.690000	0.080000	0.391918	0.131155	0.122322	0.122322	0.131155
11.700000	0.000000	0.000000	0.132928	0.124095	0.124095	0.132928
11.710000	0.080000	0.391918	0.134701	0.125868	0.125868	0.134701
11.720000	0.320000	0.926067	0.136474	0.127642	0.127642	0.136474
11.730000	0.080000	0.391918	0.138248	0.129415	0.129415	0.138248
11.740000	0.000000	0.000000	0.140021	0.131188	0.131188	0.140021
11.750000	0.000000	0.000000	0.141794	0.132961	0.132961	0.141794
11.760000	0.000000	0.000000	0.143567	0.134735	0.134735	0.143567
11.770000	0.000000	0.000000	0.145341	0.136508	0.136508	0.145341
11.780000	0.480000	1.417604	0.147114	0.138281	0.138281	0.147114
11.790000	0.000000	0.000000	0.148887	0.140054	0.140054	0.148887
11.800000	0.240000	0.861626	0.150660	0.141828	0.141828	0.150660
11.810000	0.000000	0.000000	0.152434	0.143601	0.143601	0.152434
11.820000	0.080000	0.391918	0.154207	0.145374	0.145374	0.154207
11.830000	0.080000	0.391918	0.155980	0.147147	0.147147	0.155980
11.840000	0.160000	0.542586	0.157753	0.148921	0.148921	0.157753
11.850000	0.000000	0.000000	0.159527	0.150694	0.150694	0.159527
11.860000	0.080000	0.391918	0.161300	0.152467	0.152467	0.161300
11.870000	0.000000	0.000000	0.163073	0.154240	0.154240	0.163073
11.880000	0.080000	0.391918	0.164846	0.156014	0.156014	0.164846
11.890000	0.080000	0.391918	0.166620	0.157787	0.157787	0.166620
11.900000	0.000000	0.000000	0.168393	0.159560	0.159560	0.168393
11.910000	0.240000	0.649923	0.170166	0.161333	0.161333	0.170166
11.920000	0.320000	1.223765	0.171939	0.163107	0.163107	0.171939
11.930000	0.320000	0.926067	0.173712	0.164880	0.164880	0.173712
11.940000	0.000000	0.000000	0.175486	0.166653	0.166653	0.175486
11.950000	0.000000	0.000000	0.177259	0.168426	0.168426	0.177259
11.960000	0.000000	0.000000	0.179032	0.170199	0.170199	0.179032
11.970000	0.160000	0.783837	0.180805	0.171973	0.171973	0.180805
11.980000	0.000000	0.000000	0.182579	0.173746	0.173746	0.182579
11.990000	0.080000	0.391918	0.184352	0.175519	0.175519	0.184352
12.000000	0.400000	1.264911	0.186125	0.177292	0.177292	0.186125
12.010000	0.080000	0.391918	0.187898	0.179066	0.179066	0.187898
12.020000	0.480000	1.170299	0.189672	0.180839	0.180839	0.189672
12.030000	0.000000	0.000000	0.191445	0.182612	0.182612	0.191445
12.040000	0.160000	0.542586	0.193218	0.184385	0.184385	0.193218
12.050000	0.000000	0.000000	0.194991	0.186159	0.186159	0.194991
12.060000	0.240000	0.861626	0.196765	0.187932	0.187932	0.196765
12.070000	0.000000	0.000000	0.198538	0.189705	0.189705	0.198538
12.080000	0.240000	0.861626	0.200311	0.191478	0.191478	0.200311
12.090000	0.320000	0.926067	0.202084	0.193252	0.193252	0.202084
12.100000	0.080000	0.391918	0.203858	0.195025	0.195025	0.203858
12.110000	0.000000	0.000000	0.205631	0.196798	0.196798	0.205631
12.120000	0.080000	0.391918	0.207404	0.198571	0.198571	0.207404
12.130000	0.240000	0.649923	0.209177	0.200345	0.200345	0.209177
12.140000	0.160000	0.542586	0.210951	0.202118	0.202118	0.210951
12.150000	0.000000	0.000000	0.212724	0.203891	0.203891	0.212724
12.160000	0.000000	0.000000	0.214497	0.205664	0.205664	0.214497
12.170000	0.240000	0.861626	0.216270	0.207437	0.207437	0.216270
12.180000	0.160000	0.783837	0.218043	0.209211	0.209211	0.218043
12.190000	0.000000	0.000000	0.219817	0.210984	0.210984	0.219817
12.200000	0.000000	0.000000	0.221590	0.212757	0.212757	0.221590
12.210000	0.080000	0.391918	0.223363	0.214530	0.214530	0.223363
12.220000	0.240000	0.861626	0.225136	0.216304	0.216304	0.225136
12.230000	0.160000	0.783837	0.226910	0.218077	0.218077	0.226910
12.240000	0.400000	1.385641	0.228683	0.219850	0.219850	0.228683
12.250000	0.000000	0.000000	0.230456	0.221623	0.221623	0.230456
12.260000	0.240000	0.861626	0.232229	0.223397	0.223397	0.232229
12.270000	0.080000	0.391918	0.234003	0.225170	0.225170	0.234003
12.280000	0.160000	0.542586	0.235776	0.226943	0.226943	0.235776
12.290000	0.160000	0.783837	0.237549	0.228716	0.228716	0.237549
12.300000	0.240000	0.861626	0.239322	0.230490	0.230490	0.239322
12.310000	0.400000	0.800000	0.241096	0.232263	0.232263	0.241096
12.320000	0.080000	0.391918	0.242869	0.234036	0.234036	0.242869
12.330000	0.080000	0.391918	0.244642	0.235809	0.235809	0.244642
12.340000	0.240000	1.175755	0.246415	0.237583	0.237583	0.246415
12.350000	0.080000	0.391918	0.248189	0.239356	0.239356	0.248189
12.360000	0.160000	0.542586	0.249962	0.241129	0.241129	0.249962
12.370000	0.080000	0.391918	0.251735	0.242902	0.242902	0.251735
12.380000	0.000000	0.000000	0.253508	0.244676	0.244676	0.253508
12.390000	0.000000	0.000000	0.255282	0.246449	0.246449	0.255282
12.400000	0.000000	0.000000	0.257055	0.248222	0.248222	0.257055
12.410000	0.240000	0.861626	0.258828	0.249995	0.249995	0.258828
12.420000	0.160000	0.783837	0.260601	0.251768	0.251768	0.260601
12.430000	0.000000	0.000000	0.262374	0.253542	0.253542	0.262374
12.440000	0.160000	0.783837	0.264148	0.255315	0.255315	0.264148
12.450000	0.000000	0.000000	0.265921	0.257088	0.257088	0.265921
12.460000	0.080000	0.391918	0.267694	0.258861	0.258861	0.267694
12.470000	0.160000	0.542586	0.269467	0.260635	0.260635	0.269467
12.480000	0.000000	0.000000	0.271241	0.262408	0.262408	0.271241
12.490000	0.080000	0.391918	0.273014	0.264181	0.264181	0.273014
12.500000	0.080000	0.391918	0.274787	0.265954	0.265954	0.274787
12.510000	0.240000	0.861626	0.276560	0.267728	0.267728	0.276560
12.520000	0.080000	0.391918	0.278334	0.269501	0.269501	0.278334
12.530000	0.240000	0.649923	0.280107	0.271274	0.271274	0.280107
12.540000	0.160000	0.542586	0.281880	0.273047	0.273047	0.281880
12.550000	0.480000	1.170299	0.283653	0.274821	0.274821	0.283653
12.560000	0.160000	0.542586	0.285427	0.276594	0.276594	0.285427
12.570000	0.240000	0.861626	0.287200	0.278367	0.278367	0.287200
12.580000	0.080000	0.391918	0.288973	0.280140	0.280140	0.288973
12.590000	0.160000	0.542586	0.290746	0.281914	0.281914	0.290746
12.600000	0.320000	0.926067	0.292520	0.283687	0.283687	0.292520
12.610000	0.080000	0.391918	0.294293	0.285460	0.285460	0.294293
12.620000	0.240000	0.861626	0.296066	0.287233	0.287233	0.296066
12.630000	0.400000	0.979796	0.297839	0.289007	0.289007	0.297839
12.640000	0.320000	1.223765	0.299612	0.290780	0.290780	0.299612
12.650000	0.160000	0.542586	0.301386	0.292553	0.292553	0.301386
12.660000	0.160000	0.542586	0.303159	0.294326	0.294326	0.303159
12.670000	0.240000	0.861626	0.304932	0.296099	0.296099	0.304932
12.680000	0.000000	0.000000	0.306705	0.297873	0.297873	0.306705
12.690000	0.240000	0.861626	0.308479	0.299646	0.299646	0.308479
12.700000	0.480000	1.170299	0.310252	0.301419	0.301419	0.310252
12.710000	0.080000	0.391918	0.312025	0.303192	0.303192	0.312025
12.720000	0.640000	1.763633	0.313798	0.304966	0.304966	0.313798
12.730000	0.480000	1.024500	0.315572	0.306739	0.306739	0.315572
12.740000	0.160000	0.783837	0.317345	0.308512	0.308512	0.317345
12.750000	0.080000	0.391918	0.319118	0.310285	0.310285	0.319118
12.760000	0.080000	0.391918	0.320891	0.312059	0.312059	0.320891
12.770000	0.080000	0.391918	0.322665	0.313832	0.313832	0.322665
12.780000	0.320000	0.926067	0.324438	0.315605	0.315605	0.324438
12.790000	0.160000	0.783837	0.326211	0.317378	0.317378	0.326211
12.800000	0.160000	0.783837	0.327984	0.319152	0.319152	0.327984
12.810000	0.240000	1.175755	0.329758	0.320925	0.320925	0.329758
12.820000	0.000000	0.000000	0.331531	0.322698	0.322698	0.331531
12.830000	0.400000	0.979796	0.333304	0.324471	0.324471	0.333304
12.840000	0.320000	0.733212	0.335077	0.326245	0.326245	0.335077
12.850000	0.480000	1.417604	0.336851	0.328018	0.328018	0.336851
12.860000	0.080000	0.391918	0.338624	0.329791	0.329791	0.338624
12.870000	0.320000	0.733212	0.340397	0.331564	0.331564	0.340397
12.880000	0.320000	0.926067	0.342170	0.333337	0.333337	0.342170
12.890000	0.400000	0.979796	0.343943	0.335111	0.335111	0.343943
12.900000	0.240000	0.649923	0.345717	0.336884	0.336884	0.345717
12.910000	0.240000	0.649923	0.347490	0.338657	0.338657	0.347490
12.920000	0.320000	0.733212	0.349263	0.340430	0.340430	0.349263
12.930000	0.480000	1.024500	0.351036	0.342204	0.342204	0.351036
12.940000	0.160000	0.783837	0.352810	0.343977	0.343977	0.352810
12.950000	0.400000	1.131371	0.354583	0.345750	0.345750	0.354583
12.960000	0.160000	0.783837	0.356356	0.347523	0.347523	0.356356
12.970000	0.400000	0.979796	0.358129	0.349297	0.349297	0.358129
12.980000	0.000000	0.000000	0.359903	0.351070	0.351070	0.359903
12.990000	0.400000	0.800000	0.361676	0.352843	0.352843	0.361676
13.000000	0.560000	1.329060	0.363449	0.354616	0.354616	0.363449
13.010000	0.240000	0.861626	0.365222	0.356390	0.356390	0.365222
13.020000	0.080000	0.391918	0.366996	0.358163	0.358163	0.366996
13.030000	0.240000	0.861626	0.368769	0.359936	0.359936	0.368769
13.040000	0.320000	1.223765	0.370542	0.361709	0.361709	0.370542
13.050000	0.320000	0.926067	0.372315	0.363483	0.363483	0.372315
13.060000	0.400000	0.979796	0.374089	0.365256	0.365256	0.374089
13.070000	0.240000	0.861626	0.375862	0.367029	0.367029	0.375862
13.080000	0.640000	1.228983	0.377635	0.368802	0.368802	0.377635
13.090000	0.240000	0.861626	0.379408	0.370576	0.370576	0.379408
13.100000	0.320000	1.223765	0.381182	0.372349	0.372349	0.381182
13.110000	0.080000	0.391918	0.382955	0.374122	0.374122	0.382955
13.120000	0.160000	0.783837	0.384728	0.375895	0.375895	0.384728
13.130000	0.000000	0.000000	0.386501	0.377668	0.377668	0.386501
13.140000	0.640000	1.352923	0.388274	0.379442	0.379442	0.388274
13.150000	0.720000	1.483779	0.390048	0.381215	0.381215	0.390048
13.160000	0.720000	1.483779	0.391821	0.382988	0.382988	0.391821
13.170000	0.240000	0.861626	0.393594	0.384761	0.384761	0.393594
13.180000	0.160000	0.783837	0.395367	0.386535	0.386535	0.395367
13.190000	0.960000	1.611955	0.397141	0.388308	0.388308	0.397141
13.200000	0.240000	0.861626	0.398914	0.390081	0.390081	0.398914
13.210000	0.800000	1.697056	0.400687	0.391854	0.391854	0.400687
13.220000	0.560000	1.202664	0.402460	0.393628	0.393628	0.402460
13.230000	0.640000	1.352923	0.404234	0.395401	0.395401	0.404234
13.240000	0.240000	0.861626	0.406007	0.397174	0.397174	0.406007
13.250000	0.320000	0.926067	0.407780	0.398947	0.398947	0.407780
13.260000	0.560000	1.202664	0.409553	0.400721	0.400721	0.409553
13.270000	0.160000	0.542586	0.411327	0.402494	0.402494	0.411327
13.280000	0.320000	0.926067	0.413100	0.404267	0.404267	0.413100
13.290000	0.480000	1.024500	0.414873	0.406040	0.406040	0.414873
13.300000	0.400000	1.131371	0.416646	0.407814	0.407814	0.416646
13.310000	0.640000	1.466424	0.418420	0.409587	0.409587	0.418420
13.320000	0.480000	1.299846	0.420193	0.411360	0.411360	0.420193
13.330000	0.160000	0.783837	0.421966	0.413133	0.413133	0.421966
13.340000	0.160000	0.783837	0.423739	0.414907	0.414907	0.423739
13.350000	0.560000	1.202664	0.425512	0.416680	0.416680	0.425512
13.360000	0.960000	1.799556	0.427286	0.418453	0.418453	0.427286
13.370000	0.160000	0.542586	0.429059	0.420226	0.420226	0.429059
13.380000	0.400000	0.979796	0.430832	0.421999	0.421999	0.430832
13.390000	0.960000	1.708333	0.432605	0.423773	0.423773	0.432605
13.400000	0.480000	1.024500	0.434379	0.425546	0.425546	0.434379
13.410000	0.320000	0.733212	0.436152	0.427319	0.427319	0.436152
13.420000	0.560000	1.202664	0.437925	0.429092	0.429092	0.437925
13.430000	0.400000	0.979796	0.439698	0.430866	0.430866	0.439698
13.440000	0.400000	0.979796	0.441472	0.432639	0.432639	0.441472
13.450000	0.480000	1.299846	0.443245	0.434412	0.434412	0.443245
13.460000	0.480000	1.024500	0.445018	0.436185	0.436185	0.445018
13.470000	0.640000	1.091055	0.446791	0.437959	0.437959	0.446791
13.480000	0.800000	1.876166	0.448565	0.439732	0.439732	0.448565
13.490000	0.320000	0.733212	0.450338	0.441505	0.441505	0.450338
13.500000	0.880000	2.196725	0.452111	0.443278	0.443278	0.452111
13.510000	0.080000	0.391918	0.453884	0.445052	0.445052	0.453884
13.520000	0.240000	0.861626	0.455658	0.446825	0.446825	0.455658
13.530000	0.640000	1.352923	0.457431	0.448598	0.448598	0.457431
13.540000	0.320000	0.926067	0.459204	0.450371	0.450372	0.459204
13.550000	0.240000	0.861626	0.460978	0.452145	0.452145	0.460978
13.560000	0.080000	0.391918	0.462752	0.453918	0.453919	0.462752
13.570000	0.240000	0.861626	0.464526	0.455691	0.455693	0.464526
13.580000	0.400000	0.979796	0.466300	0.457464	0.457467	0.466300
13.590000	0.320000	0.926067	0.468075	0.459237	0.459242	0.468075
13.600000	0.640000	1.466424	0.469850	0.461011	0.461017	0.469850
13.610000	0.880000	2.122640	0.471627	0.462784	0.462794	0.471627
13.620000	0.560000	1.202664	0.473406	0.464557	0.464573	0.473406
13.630000	0.480000	1.170299	0.475187	0.466330	0.466354	0.475187
13.640000	0.640000	1.352923	0.476971	0.468104	0.468138	0.476971
13.650000	0.240000	0.861626	0.478760	0.469877	0.469928	0.478760
