# Energy shift = 0.7
# a_1: -0.339 +- 0.033, a_0: 0.0 +- 1.4, domain: [10.7eV ,12.6eV]
# Y-offset = 0.0+-0.0079, AE = 13.1227+-0.5082, Scale Factor = 0.2487+-0.2932, Alpha = 2.1725+-1.1383
# Y-offset = 0.01+-0.0473, AE = 15.6066+-0.0137, Scale Factor = 21.1696+-0.4291, Alpha = 1.2718+-0.0288
# -------------------------------------------------------------
Energy	Counts	Errors	Combined Fit	Fit 1	Fit 2(incl. prev.)	Fit 3(incl. prev.)
10.700000	1.920000	2.296432	0.076584	0.066584	0.066584	0.076584
10.710000	0.000000	0.000000	0.076963	0.066963	0.066963	0.076963
10.720000	0.000000	0.000000	0.077342	0.067342	0.067342	0.077342
10.730000	0.000000	0.000000	0.077722	0.067722	0.067722	0.077722
10.740000	0.240000	1.175755	0.078101	0.068101	0.068101	0.078101
10.750000	0.080000	0.391918	0.078480	0.068480	0.068480	0.078480
10.760000	0.080000	0.391918	0.078860	0.068860	0.068860	0.078860
10.770000	0.000000	0.000000	0.079239	0.069239	0.069239	0.079239
10.780000	0.160000	0.783837	0.079618	0.069618	0.069618	0.079618
10.790000	0.000000	0.000000	0.079998	0.069998	0.069998	0.079998
10.800000	0.160000	0.783837	0.080377	0.070377	0.070377	0.080377
10.810000	0.000000	0.000000	0.080756	0.070756	0.070756	0.080756
10.820000	0.000000	0.000000	0.081135	0.071135	0.071135	0.081135
10.830000	0.000000	0.000000	0.081515	0.071515	0.071515	0.081515
10.840000	0.000000	0.000000	0.081894	0.071894	0.071894	0.081894
10.850000	0.160000	0.542586	0.082273	0.072273	0.072273	0.082273
10.860000	0.000000	0.000000	0.082653	0.072653	0.072653	0.082653
10.870000	0.080000	0.391918	0.083032	0.073032	0.073032	0.083032
10.880000	0.000000	0.000000	0.083411	0.073411	0.073411	0.083411
10.890000	0.000000	0.000000	0.083791	0.073791	0.073791	0.083791
10.900000	0.000000	0.000000	0.084170	0.074170	0.074170	0.084170
10.910000	0.080000	0.391918	0.084549	0.074549	0.074549	0.084549
10.920000	0.000000	0.000000	0.084928	0.074928	0.074928	0.084928
10.930000	0.080000	0.391918	0.085308	0.075308	0.075308	0.085308
10.940000	0.000000	0.000000	0.085687	0.075687	0.075687	0.085687
10.950000	0.000000	0.000000	0.086066	0.076066	0.076066	0.086066
10.960000	0.000000	0.000000	0.086446	0.076446	0.076446	0.086446
10.970000	0.080000	0.391918	0.086825	0.076825	0.076825	0.086825
10.980000	0.000000	0.000000	0.087204	0.077204	0.077204	0.087204
10.990000	0.000000	0.000000	0.087584	0.077584	0.077584	0.087584
11.000000	0.000000	0.000000	0.087963	0.077963	0.077963	0.087963
11.010000	0.000000	0.000000	0.088342	0.078342	0.078342	0.088342
11.020000	0.000000	0.000000	0.088722	0.078722	0.078722	0.088722
11.030000	0.000000	0.000000	0.089101	0.079101	0.079101	0.089101
11.040000	0.000000	0.000000	0.089480	0.079480	0.079480	0.089480
11.050000	0.000000	0.000000	0.089859	0.079859	0.079859	0.089859
11.060000	0.000000	0.000000	0.090239	0.080239	0.080239	0.090239
11.070000	0.000000	0.000000	0.090618	0.080618	0.080618	0.090618
11.080000	0.000000	0.000000	0.090997	0.080997	0.080997	0.090997
11.090000	0.000000	0.000000	0.091377	0.081377	0.081377	0.091377
11.100000	0.080000	0.391918	0.091756	0.081756	0.081756	0.091756
11.110000	0.240000	1.175755	0.092135	0.082135	0.082135	0.092135
11.120000	0.000000	0.000000	0.092515	0.082515	0.082515	0.092515
11.130000	0.000000	0.000000	0.092894	0.082894	0.082894	0.092894
11.140000	0.080000	0.391918	0.093273	0.083273	0.083273	0.093273
11.150000	0.160000	0.783837	0.093653	0.083653	0.083653	0.093653
11.160000	0.240000	0.861626	0.094032	0.084032	0.084032	0.094032
11.170000	0.160000	0.783837	0.094411	0.084411	0.084411	0.094411
11.180000	0.000000	0.000000	0.094790	0.084790	0.084790	0.094790
11.190000	0.000000	0.000000	0.095170	0.085170	0.085170	0.095170
11.200000	0.240000	0.861626	0.095549	0.085549	0.085549	0.095549
11.210000	0.080000	0.391918	0.095928	0.085928	0.085928	0.095928
11.220000	0.000000	0.000000	0.096308	0.086308	0.086308	0.096308
11.230000	0.080000	0.391918	0.096687	0.086687	0.086687	0.096687
11.240000	0.160000	0.783837	0.097066	0.087066	0.087066	0.097066
11.250000	0.080000	0.391918	0.097446	0.087446	0.087446	0.097446
11.260000	0.080000	0.391918	0.097825	0.087825	0.087825	0.097825
11.270000	0.000000	0.000000	0.098204	0.088204	0.088204	0.098204
11.280000	0.080000	0.391918	0.098583	0.088583	0.088583	0.098583
11.290000	0.320000	1.085173	0.098963	0.088963	0.088963	0.098963
11.300000	0.080000	0.391918	0.099342	0.089342	0.089342	0.099342
11.310000	0.160000	0.542586	0.099721	0.089721	0.089721	0.099721
11.320000	0.000000	0.000000	0.100101	0.090101	0.090101	0.100101
11.330000	0.000000	0.000000	0.100480	0.090480	0.090480	0.100480
11.340000	0.000000	0.000000	0.100859	0.090859	0.090859	0.100859
11.350000	0.080000	0.391918	0.101239	0.091239	0.091239	0.101239
11.360000	0.080000	0.391918	0.101618	0.091618	0.091618	0.101618
11.370000	0.000000	0.000000	0.101997	0.091997	0.091997	0.101997
11.380000	0.000000	0.000000	0.102377	0.092377	0.092377	0.102377
11.390000	0.080000	0.391918	0.102756	0.092756	0.092756	0.102756
11.400000	0.000000	0.000000	0.103135	0.093135	0.093135	0.103135
11.410000	0.160000	0.783837	0.103514	0.093514	0.093514	0.103514
11.420000	0.000000	0.000000	0.103894	0.093894	0.093894	0.103894
11.430000	0.080000	0.391918	0.104273	0.094273	0.094273	0.104273
11.440000	0.240000	0.649923	0.104652	0.094652	0.094652	0.104652
11.450000	0.000000	0.000000	0.105032	0.095032	0.095032	0.105032
11.460000	0.000000	0.000000	0.105411	0.095411	0.095411	0.105411
11.470000	0.000000	0.000000	0.105790	0.095790	0.095790	0.105790
11.480000	0.000000	0.000000	0.106170	0.096170	0.096170	0.106170
11.490000	0.000000	0.000000	0.106549	0.096549	0.096549	0.106549
11.500000	0.080000	0.391918	0.106928	0.096928	0.096928	0.106928
11.510000	0.000000	0.000000	0.107308	0.097308	0.097308	0.107308
11.520000	0.080000	0.391918	0.107687	0.097687	0.097687	0.107687
11.530000	0.000000	0.000000	0.108066	0.098066	0.098066	0.108066
11.540000	0.080000	0.391918	0.108445	0.098445	0.098445	0.108445
11.550000	0.000000	0.000000	0.108825	0.098825	0.098825	0.108825
11.560000	0.080000	0.391918	0.109204	0.099204	0.099204	0.109204
11.570000	0.240000	0.861626	0.109583	0.099583	0.099583	0.109583
11.580000	0.160000	0.542586	0.109963	0.099963	0.099963	0.109963
11.590000	0.160000	0.542586	0.110342	0.100342	0.100342	0.110342
11.600000	0.000000	0.000000	0.110721	0.100721	0.100721	0.110721
11.610000	0.000000	0.000000	0.111101	0.101101	0.101101	0.111101
11.620000	0.160000	0.783837	0.111480	0.101480	0.101480	0.111480
11.630000	0.000000	0.000000	0.111859	0.101859	0.101859	0.111859
11.640000	0.160000	0.542586	0.112238	0.102238	0.102238	0.112238
11.650000	0.000000	0.000000	0.112618	0.102618	0.102618	0.112618
11.660000	0.160000	0.542586	0.112997	0.102997	0.102997	0.112997
11.670000	0.160000	0.542586	0.113376	0.103376	0.103376	0.113376
11.680000	0.080000	0.391918	0.113756	0.103756	0.103756	0.113756
11.690000	0.000000	0.000000	0.114135	0.104135	0.104135	0.114135
11.700000	0.080000	0.391918	0.114514	0.104514	0.104514	0.114514
11.710000	0.320000	0.926067	0.114894	0.104894	0.104894	0.114894
11.720000	0.080000	0.391918	0.115273	0.105273	0.105273	0.115273
11.730000	0.000000	0.000000	0.115652	0.105652	0.105652	0.115652
11.740000	0.000000	0.000000	0.116032	0.106032	0.106032	0.116032
11.750000	0.000000	0.000000	0.116411	0.106411	0.106411	0.116411
11.760000	0.000000	0.000000	0.116790	0.106790	0.106790	0.116790
11.770000	0.480000	1.417604	0.117169	0.107169	0.107169	0.117169
11.780000	0.000000	0.000000	0.117549	0.107549	0.107549	0.117549
11.790000	0.240000	0.861626	0.117928	0.107928	0.107928	0.117928
11.800000	0.000000	0.000000	0.118307	0.108307	0.108307	0.118307
11.810000	0.080000	0.391918	0.118687	0.108687	0.108687	0.118687
11.820000	0.080000	0.391918	0.119066	0.109066	0.109066	0.119066
11.830000	0.160000	0.542586	0.119445	0.109445	0.109445	0.119445
11.840000	0.000000	0.000000	0.119825	0.109825	0.109825	0.119825
11.850000	0.080000	0.391918	0.120204	0.110204	0.110204	0.120204
11.860000	0.000000	0.000000	0.120583	0.110583	0.110583	0.120583
11.870000	0.080000	0.391918	0.120963	0.110963	0.110963	0.120963
11.880000	0.080000	0.391918	0.121342	0.111342	0.111342	0.121342
11.890000	0.000000	0.000000	0.121721	0.111721	0.111721	0.121721
11.900000	0.240000	0.649923	0.122100	0.112100	0.112100	0.122100
11.910000	0.320000	1.223765	0.122480	0.112480	0.112480	0.122480
11.920000	0.320000	0.926067	0.122859	0.112859	0.112859	0.122859
11.930000	0.000000	0.000000	0.123238	0.113238	0.113238	0.123238
11.940000	0.000000	0.000000	0.123618	0.113618	0.113618	0.123618
11.950000	0.000000	0.000000	0.123997	0.113997	0.113997	0.123997
11.960000	0.160000	0.783837	0.124376	0.114376	0.114376	0.124376
11.970000	0.000000	0.000000	0.124756	0.114756	0.114756	0.124756
11.980000	0.080000	0.391918	0.125135	0.115135	0.115135	0.125135
11.990000	0.400000	1.264911	0.125514	0.115514	0.115514	0.125514
12.000000	0.080000	0.391918	0.125893	0.115893	0.115893	0.125893
12.010000	0.480000	1.170299	0.126273	0.116273	0.116273	0.126273
12.020000	0.000000	0.000000	0.126652	0.116652	0.116652	0.126652
12.030000	0.160000	0.542586	0.127031	0.117031	0.117031	0.127031
12.040000	0.000000	0.000000	0.127411	0.117411	0.117411	0.127411
12.050000	0.240000	0.861626	0.127790	0.117790	0.117790	0.127790
12.060000	0.000000	0.000000	0.128169	0.118169	0.118169	0.128169
12.070000	0.240000	0.861626	0.128549	0.118549	0.118549	0.128549
12.080000	0.320000	0.926067	0.128928	0.118928	0.118928	0.128928
12.090000	0.080000	0.391918	0.129307	0.119307	0.119307	0.129307
12.100000	0.000000	0.000000	0.129687	0.119687	0.119687	0.129687
12.110000	0.080000	0.391918	0.130066	0.120066	0.120066	0.130066
12.120000	0.240000	0.649923	0.130445	0.120445	0.120445	0.130445
12.130000	0.160000	0.542586	0.130824	0.120824	0.120824	0.130824
12.140000	0.000000	0.000000	0.131204	0.121204	0.121204	0.131204
12.150000	0.000000	0.000000	0.131583	0.121583	0.121583	0.131583
12.160000	0.240000	0.861626	0.131962	0.121962	0.121962	0.131962
12.170000	0.160000	0.783837	0.132342	0.122342	0.122342	0.132342
12.180000	0.000000	0.000000	0.132721	0.122721	0.122721	0.132721
12.190000	0.000000	0.000000	0.133100	0.123100	0.123100	0.133100
12.200000	0.080000	0.391918	0.133480	0.123480	0.123480	0.133480
12.210000	0.240000	0.861626	0.133859	0.123859	0.123859	0.133859
12.220000	0.160000	0.783837	0.134238	0.124238	0.124238	0.134238
12.230000	0.400000	1.385641	0.134618	0.124618	0.124618	0.134618
12.240000	0.000000	0.000000	0.134997	0.124997	0.124997	0.134997
12.250000	0.240000	0.861626	0.135376	0.125376	0.125376	0.135376
12.260000	0.080000	0.391918	0.135755	0.125755	0.125755	0.135755
12.270000	0.160000	0.542586	0.136135	0.126135	0.126135	0.136135
12.280000	0.160000	0.783837	0.136514	0.126514	0.126514	0.136514
12.290000	0.240000	0.861626	0.136893	0.126893	0.126893	0.136893
12.300000	0.400000	0.800000	0.137273	0.127273	0.127273	0.137273
12.310000	0.080000	0.391918	0.137652	0.127652	0.127652	0.137652
12.320000	0.080000	0.391918	0.138031	0.128031	0.128031	0.138031
12.330000	0.240000	1.175755	0.138411	0.128411	0.128411	0.138411
12.340000	0.080000	0.391918	0.138790	0.128790	0.128790	0.138790
12.350000	0.160000	0.542586	0.139169	0.129169	0.129169	0.139169
12.360000	0.080000	0.391918	0.139548	0.129548	0.129548	0.139548
12.370000	0.000000	0.000000	0.139928	0.129928	0.129928	0.139928
12.380000	0.000000	0.000000	0.140307	0.130307	0.130307	0.140307
12.390000	0.000000	0.000000	0.140686	0.130686	0.130686	0.140686
12.400000	0.240000	0.861626	0.141066	0.131066	0.131066	0.141066
12.410000	0.160000	0.783837	0.141445	0.131445	0.131445	0.141445
12.420000	0.000000	0.000000	0.141824	0.131824	0.131824	0.141824
12.430000	0.160000	0.783837	0.142204	0.132204	0.132204	0.142204
12.440000	0.000000	0.000000	0.142583	0.132583	0.132583	0.142583
12.450000	0.080000	0.391918	0.142962	0.132962	0.132962	0.142962
12.460000	0.160000	0.542586	0.143342	0.133342	0.133342	0.143342
12.470000	0.000000	0.000000	0.143721	0.133721	0.133721	0.143721
12.480000	0.080000	0.391918	0.144100	0.134100	0.134100	0.144100
12.490000	0.080000	0.391918	0.144479	0.134479	0.134479	0.144479
12.500000	0.240000	0.861626	0.144859	0.134859	0.134859	0.144859
12.510000	0.080000	0.391918	0.145238	0.135238	0.135238	0.145238
12.520000	0.240000	0.649923	0.145617	0.135617	0.135617	0.145617
12.530000	0.160000	0.542586	0.145997	0.135997	0.135997	0.145997
12.540000	0.480000	1.170299	0.146376	0.136376	0.136376	0.146376
12.550000	0.160000	0.542586	0.146755	0.136755	0.136755	0.146755
12.560000	0.240000	0.861626	0.147135	0.137135	0.137135	0.147135
12.570000	0.080000	0.391918	0.147514	0.137514	0.137514	0.147514
12.580000	0.160000	0.542586	0.147893	0.137893	0.137893	0.147893
12.590000	0.320000	0.926067	0.148273	0.138273	0.138273	0.148273
12.600000	0.080000	0.391918	0.148652	0.138652	0.138652	0.148652
12.610000	0.240000	0.861626	0.149031	0.139031	0.139031	0.149031
12.620000	0.400000	0.979796	0.149410	0.139410	0.139410	0.149410
12.630000	0.320000	1.223765	0.149790	0.139790	0.139790	0.149790
12.640000	0.160000	0.542586	0.150169	0.140169	0.140169	0.150169
12.650000	0.160000	0.542586	0.150548	0.140548	0.140548	0.150548
12.660000	0.240000	0.861626	0.150928	0.140928	0.140928	0.150928
12.670000	0.000000	0.000000	0.151307	0.141307	0.141307	0.151307
12.680000	0.240000	0.861626	0.151686	0.141686	0.141686	0.151686
12.690000	0.480000	1.170299	0.152066	0.142066	0.142066	0.152066
12.700000	0.080000	0.391918	0.152445	0.142445	0.142445	0.152445
12.710000	0.640000	1.763633	0.152824	0.142824	0.142824	0.152824
12.720000	0.480000	1.024500	0.153203	0.143203	0.143203	0.153203
12.730000	0.160000	0.783837	0.153583	0.143583	0.143583	0.153583
12.740000	0.080000	0.391918	0.153962	0.143962	0.143962	0.153962
12.750000	0.080000	0.391918	0.154341	0.144341	0.144341	0.154341
12.760000	0.080000	0.391918	0.154721	0.144721	0.144721	0.154721
12.770000	0.320000	0.926067	0.155100	0.145100	0.145100	0.155100
12.780000	0.160000	0.783837	0.155479	0.145479	0.145479	0.155479
12.790000	0.160000	0.783837	0.155859	0.145859	0.145859	0.155859
12.800000	0.240000	1.175755	0.156238	0.146238	0.146238	0.156238
12.810000	0.000000	0.000000	0.156617	0.146617	0.146617	0.156617
12.820000	0.400000	0.979796	0.156997	0.146997	0.146997	0.156997
12.830000	0.320000	0.733212	0.157376	0.147376	0.147376	0.157376
12.840000	0.480000	1.417604	0.157755	0.147755	0.147755	0.157755
12.850000	0.080000	0.391918	0.158135	0.148134	0.148135	0.158135
12.860000	0.320000	0.733212	0.158514	0.148514	0.148514	0.158514
12.870000	0.320000	0.926067	0.158894	0.148893	0.148894	0.158894
12.880000	0.400000	0.979796	0.159273	0.149272	0.149273	0.159273
12.890000	0.240000	0.649923	0.159653	0.149652	0.149653	0.159653
12.900000	0.240000	0.649923	0.160033	0.150031	0.150033	0.160033
12.910000	0.320000	0.733212	0.160414	0.150410	0.150414	0.160414
12.920000	0.480000	1.024500	0.160794	0.150790	0.150794	0.160794
12.930000	0.160000	0.783837	0.161176	0.151169	0.151176	0.161176
12.940000	0.400000	1.131371	0.161559	0.151548	0.151559	0.161559
12.950000	0.160000	0.783837	0.161942	0.151928	0.151942	0.161942
12.960000	0.400000	0.979796	0.162328	0.152307	0.152328	0.162328
12.970000	0.000000	0.000000	0.162716	0.152686	0.152716	0.162716
12.980000	0.400000	0.800000	0.163107	0.153065	0.153107	0.163107
12.990000	0.560000	1.329060	0.163501	0.153445	0.153501	0.163501
13.000000	0.240000	0.861626	0.163901	0.153824	0.153901	0.163901
13.010000	0.080000	0.391918	0.164307	0.154203	0.154307	0.164307
13.020000	0.240000	0.861626	0.164721	0.154583	0.154721	0.164721
13.030000	0.320000	1.223765	0.165144	0.154962	0.155144	0.165144
13.040000	0.320000	0.926067	0.165580	0.155341	0.155580	0.165580
13.050000	0.400000	0.979796	0.166030	0.155721	0.156030	0.166030
13.060000	0.240000	0.861626	0.166497	0.156100	0.156497	0.166497
13.070000	0.640000	1.228983	0.166984	0.156479	0.156984	0.166984
13.080000	0.240000	0.861626	0.167496	0.156859	0.157496	0.167496
13.090000	0.320000	1.223765	0.168036	0.157238	0.158036	0.168036
13.100000	0.080000	0.391918	0.168607	0.157617	0.158607	0.168607
13.110000	0.160000	0.783837	0.169215	0.157996	0.159215	0.169215
13.120000	0.000000	0.000000	0.169864	0.158376	0.159864	0.169864
13.130000	0.640000	1.352923	0.170559	0.158755	0.160559	0.170559
13.140000	0.720000	1.483779	0.171305	0.159134	0.161305	0.171305
13.150000	0.720000	1.483779	0.172107	0.159514	0.162107	0.172107
13.160000	0.240000	0.861626	0.172970	0.159893	0.162970	0.172970
13.170000	0.160000	0.783837	0.173899	0.160272	0.163899	0.173899
13.180000	0.960000	1.611955	0.174898	0.160652	0.164898	0.174898
13.190000	0.240000	0.861626	0.175974	0.161031	0.165974	0.175974
13.200000	0.800000	1.697056	0.177130	0.161410	0.167130	0.177130
13.210000	0.560000	1.202664	0.178370	0.161789	0.168370	0.178370
13.220000	0.640000	1.352923	0.179699	0.162169	0.169699	0.179699
13.230000	0.240000	0.861626	0.181121	0.162548	0.171121	0.181121
13.240000	0.320000	0.926067	0.182639	0.162927	0.172639	0.182639
13.250000	0.560000	1.202664	0.184256	0.163307	0.174256	0.184256
13.260000	0.160000	0.542586	0.185975	0.163686	0.175975	0.185975
13.270000	0.320000	0.926067	0.187800	0.164065	0.177800	0.187800
13.280000	0.480000	1.024500	0.189733	0.164445	0.179733	0.189733
13.290000	0.400000	1.131371	0.191775	0.164824	0.181775	0.191775
13.300000	0.640000	1.466424	0.193929	0.165203	0.183929	0.193929
13.310000	0.480000	1.299846	0.196197	0.165583	0.186197	0.196197
13.320000	0.160000	0.783837	0.198581	0.165962	0.188581	0.198581
13.330000	0.160000	0.783837	0.201082	0.166341	0.191082	0.201082
13.340000	0.560000	1.202664	0.203702	0.166720	0.193702	0.203702
13.350000	0.960000	1.799556	0.206441	0.167100	0.196441	0.206441
13.360000	0.160000	0.542586	0.209301	0.167479	0.199301	0.209301
13.370000	0.400000	0.979796	0.212284	0.167858	0.202284	0.212284
13.380000	0.960000	1.708333	0.215390	0.168238	0.205390	0.215390
13.390000	0.480000	1.024500	0.218621	0.168617	0.208621	0.218621
13.400000	0.320000	0.733212	0.221976	0.168996	0.211976	0.221976
13.410000	0.560000	1.202664	0.225458	0.169376	0.215458	0.225458
13.420000	0.400000	0.979796	0.229067	0.169755	0.219067	0.229067
13.430000	0.400000	0.979796	0.232804	0.170134	0.222804	0.232804
13.440000	0.480000	1.299846	0.236670	0.170514	0.226670	0.236670
13.450000	0.480000	1.024500	0.240665	0.170893	0.230665	0.240665
13.460000	0.640000	1.091055	0.244791	0.171272	0.234791	0.244791
13.470000	0.800000	1.876166	0.249047	0.171651	0.239047	0.249047
13.480000	0.320000	0.733212	0.253435	0.172031	0.243435	0.253435
13.490000	0.880000	2.196725	0.257956	0.172410	0.247956	0.257956
13.500000	0.080000	0.391918	0.262609	0.172789	0.252609	0.262609
13.510000	0.240000	0.861626	0.267396	0.173169	0.257396	0.267396
13.520000	0.640000	1.352923	0.272318	0.173548	0.262318	0.272318
13.530000	0.320000	0.926067	0.277374	0.173927	0.267374	0.277374
13.540000	0.240000	0.861626	0.282566	0.174307	0.272566	0.282566
13.550000	0.080000	0.391918	0.287894	0.174686	0.277894	0.287894
13.560000	0.240000	0.861626	0.293359	0.175065	0.283359	0.293359
13.570000	0.400000	0.979796	0.298961	0.175444	0.288961	0.298961
13.580000	0.320000	0.926067	0.304701	0.175824	0.294701	0.304701
13.590000	0.640000	1.466424	0.310579	0.176203	0.300579	0.310579
13.600000	0.880000	2.122640	0.316596	0.176582	0.306596	0.316596
13.610000	0.560000	1.202664	0.322753	0.176962	0.312753	0.322753
13.620000	0.480000	1.170299	0.329050	0.177341	0.319050	0.329050
13.630000	0.640000	1.352923	0.335487	0.177720	0.325487	0.335487
13.640000	0.240000	0.861626	0.342065	0.178100	0.332065	0.342065
13.650000	0.320000	0.733212	0.348784	0.178479	0.338784	0.348784
