# Energy shift = 0.69
# a_2: 8.0672 +- 0.0021, a_1: -1.56 +- 0.11, a_0: 0.1 +- 1.7, domain: [9.77eV ,12.75eV]
# Y-offset = 0.0+-0.0099, AE = 12.6337+-0.34, Scale Factor = 0.5722+-0.7533, Alpha = 3.8337+-1.1081
# Y-offset = 0.0+-0.0194, AE = 14.095+-0.1521, Scale Factor = 2.961+-1.1134, Alpha = 2.287+-0.4019
# -------------------------------------------------------------
Energy	Counts	Errors	Combined Fit	Fit 1	Fit 2(incl. prev.)	Fit 3(incl. prev.)
8.690000	6.638000	10.202980	nan	0.000000	 	 
8.700000	0.000000	0.000000	nan	0.000000	 	 
8.710000	0.000000	0.000000	nan	0.000000	 	 
8.720000	0.042550	0.280012	nan	0.000000	 	 
8.730000	0.000000	0.000000	nan	0.000000	 	 
8.740000	0.000000	0.000000	nan	0.000000	 	 
8.750000	0.000000	0.000000	nan	0.000000	 	 
8.760000	0.042550	0.280012	nan	0.000000	 	 
8.770000	0.000000	0.000000	nan	0.000000	 	 
8.780000	0.000000	0.000000	nan	0.000000	 	 
8.790000	0.000000	0.000000	nan	0.000000	 	 
8.800000	0.000000	0.000000	nan	0.000000	 	 
8.810000	0.000000	0.000000	nan	0.000000	 	 
8.820000	0.000000	0.000000	nan	0.000000	 	 
8.830000	0.000000	0.000000	nan	0.000000	 	 
8.840000	0.000000	0.000000	nan	0.000000	 	 
8.850000	0.000000	0.000000	nan	0.000000	 	 
8.860000	0.000000	0.000000	nan	0.000000	 	 
8.870000	0.000000	0.000000	nan	0.000000	 	 
8.880000	0.085110	0.560023	nan	0.000000	 	 
8.890000	0.000000	0.000000	nan	0.000000	 	 
8.900000	0.000000	0.000000	nan	0.000000	 	 
8.910000	0.000000	0.000000	nan	0.000000	 	 
8.920000	0.000000	0.000000	nan	0.000000	 	 
8.930000	0.000000	0.000000	nan	0.000000	 	 
8.940000	0.000000	0.000000	nan	0.000000	 	 
8.950000	0.000000	0.000000	nan	0.000000	 	 
8.960000	0.000000	0.000000	nan	0.000000	 	 
8.970000	0.000000	0.000000	nan	0.000000	 	 
8.980000	0.085110	0.560023	nan	0.000000	 	 
8.990000	0.000000	0.000000	nan	0.000000	 	 
9.000000	0.000000	0.000000	nan	0.000000	 	 
9.010000	0.042550	0.280012	nan	0.000000	 	 
9.020000	0.000000	0.000000	nan	0.000000	 	 
9.030000	0.000000	0.000000	nan	0.000000	 	 
9.040000	0.000000	0.000000	nan	0.000000	 	 
9.050000	0.000000	0.000000	nan	0.000000	 	 
9.060000	0.000000	0.000000	nan	0.000000	 	 
9.070000	0.000000	0.000000	nan	0.000000	 	 
9.080000	0.000000	0.000000	nan	0.000000	 	 
9.090000	0.000000	0.000000	nan	0.000000	 	 
9.100000	0.000000	0.000000	nan	0.000000	 	 
9.110000	0.000000	0.000000	nan	0.000000	 	 
9.120000	0.000000	0.000000	nan	0.000000	 	 
9.130000	0.000000	0.000000	nan	0.000000	 	 
9.140000	0.000000	0.000000	nan	0.000000	 	 
9.150000	0.000000	0.000000	nan	0.000000	 	 
9.160000	0.170200	1.120046	nan	0.000000	 	 
9.170000	0.000000	0.000000	nan	0.000000	 	 
9.180000	0.000000	0.000000	nan	0.000000	 	 
9.190000	0.000000	0.000000	nan	0.000000	 	 
9.200000	0.000000	0.000000	nan	0.000000	 	 
9.210000	0.042550	0.280012	nan	0.000000	 	 
9.220000	0.000000	0.000000	nan	0.000000	 	 
9.230000	0.000000	0.000000	nan	0.000000	 	 
9.240000	0.000000	0.000000	nan	0.000000	 	 
9.250000	0.000000	0.000000	nan	0.000000	 	 
9.260000	0.000000	0.000000	nan	0.000000	 	 
9.270000	0.000000	0.000000	nan	0.000000	 	 
9.280000	0.000000	0.000000	nan	0.000000	 	 
9.290000	0.000000	0.000000	nan	0.000000	 	 
9.300000	0.085110	0.391952	nan	0.000000	 	 
9.310000	0.000000	0.000000	nan	0.000000	 	 
9.320000	0.000000	0.000000	nan	0.000000	 	 
9.330000	0.000000	0.000000	nan	0.000000	 	 
9.340000	0.000000	0.000000	nan	0.000000	 	 
9.350000	0.000000	0.000000	nan	0.000000	 	 
9.360000	0.000000	0.000000	nan	0.000000	 	 
9.370000	0.000000	0.000000	nan	0.000000	 	 
9.380000	0.000000	0.000000	nan	0.000000	 	 
9.390000	0.000000	0.000000	nan	0.000000	 	 
9.400000	0.000000	0.000000	nan	0.000000	 	 
9.410000	0.000000	0.000000	nan	0.000000	 	 
9.420000	0.000000	0.000000	nan	0.000000	 	 
9.430000	0.000000	0.000000	nan	0.000000	 	 
9.440000	0.000000	0.000000	nan	0.000000	 	 
9.450000	0.000000	0.000000	nan	0.000000	 	 
9.460000	0.000000	0.000000	nan	0.000000	 	 
9.470000	0.000000	0.000000	nan	0.000000	 	 
9.480000	0.000000	0.000000	nan	0.000000	 	 
9.490000	0.000000	0.000000	nan	0.000000	 	 
9.500000	0.000000	0.000000	nan	0.000000	 	 
9.510000	0.000000	0.000000	nan	0.000000	 	 
9.520000	0.000000	0.000000	nan	0.000000	 	 
9.530000	0.000000	0.000000	nan	0.000000	 	 
9.540000	0.042550	0.280012	nan	0.000000	 	 
9.550000	0.000000	0.000000	nan	0.000000	 	 
9.560000	0.000000	0.000000	nan	0.000000	 	 
9.570000	0.042550	0.280012	nan	0.000000	 	 
9.580000	0.000000	0.000000	nan	0.000000	 	 
9.590000	0.000000	0.000000	nan	0.000000	 	 
9.600000	0.000000	0.000000	nan	0.000000	 	 
9.610000	0.000000	0.000000	nan	0.000000	 	 
9.620000	0.000000	0.000000	nan	0.000000	 	 
9.630000	0.042550	0.280012	nan	0.000000	 	 
9.640000	0.000000	0.000000	nan	0.000000	 	 
9.650000	0.000000	0.000000	nan	0.000000	 	 
9.660000	0.000000	0.000000	nan	0.000000	 	 
9.670000	0.000000	0.000000	nan	0.000000	 	 
9.680000	0.000000	0.000000	nan	0.000000	 	 
9.690000	0.000000	0.000000	nan	0.000000	 	 
9.700000	0.042550	0.280012	nan	0.000000	 	 
9.710000	0.000000	0.000000	nan	0.000000	 	 
9.720000	0.085110	0.560023	nan	0.000000	 	 
9.730000	0.000000	0.000000	nan	0.000000	 	 
9.740000	0.000000	0.000000	nan	0.000000	 	 
9.750000	0.000000	0.000000	nan	0.000000	 	 
9.760000	0.000000	0.000000	nan	0.000000	 	 
9.770000	0.042550	0.280012	0.055757	0.055757	0.055757	0.055757
9.780000	0.042550	0.280012	0.055009	0.055009	0.055009	0.055009
9.790000	0.000000	0.000000	0.054277	0.054277	0.054277	0.054277
9.800000	0.085110	0.560023	0.053560	0.053560	0.053560	0.053560
9.810000	0.000000	0.000000	0.052859	0.052859	0.052859	0.052859
9.820000	0.042550	0.280012	0.052172	0.052172	0.052172	0.052172
9.830000	0.000000	0.000000	0.051501	0.051501	0.051501	0.051501
9.840000	0.000000	0.000000	0.050845	0.050845	0.050845	0.050845
9.850000	0.000000	0.000000	0.050204	0.050204	0.050204	0.050204
9.860000	0.170200	0.880059	0.049579	0.049579	0.049579	0.049579
9.870000	0.000000	0.000000	0.048969	0.048969	0.048969	0.048969
9.880000	0.000000	0.000000	0.048374	0.048374	0.048374	0.048374
9.890000	0.042550	0.280012	0.047794	0.047794	0.047794	0.047794
9.900000	0.085110	0.560023	0.047229	0.047229	0.047229	0.047229
9.910000	0.000000	0.000000	0.046680	0.046680	0.046680	0.046680
9.920000	0.000000	0.000000	0.046146	0.046146	0.046146	0.046146
9.930000	0.000000	0.000000	0.045627	0.045627	0.045627	0.045627
9.940000	0.042550	0.280012	0.045124	0.045124	0.045124	0.045124
9.950000	0.170200	0.880059	0.044635	0.044635	0.044635	0.044635
9.960000	0.042550	0.280012	0.044162	0.044162	0.044162	0.044162
9.970000	0.000000	0.000000	0.043705	0.043705	0.043705	0.043705
9.980000	0.000000	0.000000	0.043262	0.043262	0.043262	0.043262
9.990000	0.085110	0.560023	0.042835	0.042835	0.042835	0.042835
10.000000	0.000000	0.000000	0.042423	0.042423	0.042423	0.042423
10.010000	0.000000	0.000000	0.042026	0.042026	0.042026	0.042026
10.020000	0.000000	0.000000	0.041644	0.041644	0.041644	0.041644
10.030000	0.127700	0.840035	0.041278	0.041278	0.041278	0.041278
10.040000	0.000000	0.000000	0.040927	0.040927	0.040927	0.040927
10.050000	0.000000	0.000000	0.040591	0.040591	0.040591	0.040591
10.060000	0.000000	0.000000	0.040270	0.040270	0.040270	0.040270
10.070000	0.085110	0.560023	0.039965	0.039965	0.039965	0.039965
10.080000	0.042550	0.280012	0.039674	0.039674	0.039674	0.039674
10.090000	0.042550	0.280012	0.039400	0.039400	0.039400	0.039400
10.100000	0.127700	0.621015	0.039140	0.039140	0.039140	0.039140
10.110000	0.042550	0.280012	0.038895	0.038895	0.038895	0.038895
10.120000	0.000000	0.000000	0.038666	0.038666	0.038666	0.038666
10.130000	0.170200	0.674169	0.038452	0.038452	0.038452	0.038452
10.140000	0.042550	0.280012	0.038253	0.038253	0.038253	0.038253
10.150000	0.000000	0.000000	0.038070	0.038070	0.038070	0.038070
10.160000	0.000000	0.000000	0.037902	0.037902	0.037902	0.037902
10.170000	0.085110	0.391952	0.037749	0.037749	0.037749	0.037749
10.180000	0.042550	0.280012	0.037611	0.037611	0.037611	0.037611
10.190000	0.085110	0.560023	0.037488	0.037488	0.037488	0.037488
10.200000	0.000000	0.000000	0.037381	0.037381	0.037381	0.037381
10.210000	0.170200	0.674169	0.037289	0.037289	0.037289	0.037289
10.220000	0.127700	0.621015	0.037212	0.037212	0.037212	0.037212
10.230000	0.085110	0.391952	0.037151	0.037151	0.037151	0.037151
10.240000	0.000000	0.000000	0.037104	0.037104	0.037104	0.037104
10.250000	0.042550	0.280012	0.037073	0.037073	0.037073	0.037073
10.260000	0.085110	0.391952	0.037057	0.037057	0.037057	0.037057
10.270000	0.000000	0.000000	0.037057	0.037057	0.037057	0.037057
10.280000	0.000000	0.000000	0.037071	0.037071	0.037071	0.037071
10.290000	0.085110	0.560023	0.037101	0.037101	0.037101	0.037101
10.300000	0.000000	0.000000	0.037146	0.037146	0.037146	0.037146
10.310000	0.085110	0.560023	0.037207	0.037207	0.037207	0.037207
10.320000	0.000000	0.000000	0.037282	0.037282	0.037282	0.037282
10.330000	0.000000	0.000000	0.037373	0.037373	0.037373	0.037373
10.340000	0.000000	0.000000	0.037479	0.037479	0.037479	0.037479
10.350000	0.000000	0.000000	0.037601	0.037601	0.037601	0.037601
10.360000	0.000000	0.000000	0.037737	0.037737	0.037737	0.037737
10.370000	0.000000	0.000000	0.037889	0.037889	0.037889	0.037889
10.380000	0.000000	0.000000	0.038056	0.038056	0.038056	0.038056
10.390000	0.085110	0.560023	0.038238	0.038238	0.038238	0.038238
10.400000	0.042550	0.280012	0.038436	0.038436	0.038436	0.038436
10.410000	0.000000	0.000000	0.038649	0.038649	0.038649	0.038649
10.420000	0.000000	0.000000	0.038877	0.038877	0.038877	0.038877
10.430000	0.042550	0.280012	0.039120	0.039120	0.039120	0.039120
10.440000	0.212800	0.824720	0.039378	0.039378	0.039378	0.039378
10.450000	0.042550	0.280012	0.039652	0.039652	0.039652	0.039652
10.460000	0.085110	0.391952	0.039941	0.039941	0.039941	0.039941
10.470000	0.042550	0.280012	0.040245	0.040245	0.040245	0.040245
10.480000	0.000000	0.000000	0.040565	0.040565	0.040565	0.040565
10.490000	0.042550	0.280012	0.040899	0.040899	0.040899	0.040899
10.500000	0.127700	0.475036	0.041249	0.041249	0.041249	0.041249
10.510000	0.085110	0.391952	0.041615	0.041615	0.041615	0.041615
10.520000	0.042550	0.280012	0.041995	0.041995	0.041995	0.041995
10.530000	0.042550	0.280012	0.042391	0.042391	0.042391	0.042391
10.540000	0.042550	0.280012	0.042801	0.042801	0.042801	0.042801
10.550000	0.042550	0.280012	0.043228	0.043228	0.043228	0.043228
10.560000	0.042550	0.280012	0.043669	0.043669	0.043669	0.043669
10.570000	0.127700	0.475036	0.044126	0.044126	0.044126	0.044126
10.580000	0.042550	0.280012	0.044597	0.044597	0.044597	0.044597
10.590000	0.000000	0.000000	0.045085	0.045085	0.045085	0.045085
10.600000	0.127700	0.840035	0.045587	0.045587	0.045587	0.045587
10.610000	0.000000	0.000000	0.046104	0.046104	0.046104	0.046104
10.620000	0.170200	0.880059	0.046637	0.046637	0.046637	0.046637
10.630000	0.042550	0.280012	0.047185	0.047185	0.047185	0.047185
10.640000	0.085110	0.391952	0.047749	0.047749	0.047749	0.047749
10.650000	0.085110	0.560023	0.048327	0.048327	0.048327	0.048327
10.660000	0.000000	0.000000	0.048921	0.048921	0.048921	0.048921
10.670000	0.000000	0.000000	0.049530	0.049530	0.049530	0.049530
10.680000	0.000000	0.000000	0.050154	0.050154	0.050154	0.050154
10.690000	0.000000	0.000000	0.050794	0.050794	0.050794	0.050794
10.700000	0.042550	0.280012	0.051449	0.051449	0.051449	0.051449
10.710000	0.000000	0.000000	0.052119	0.052119	0.052119	0.052119
10.720000	0.042550	0.280012	0.052804	0.052804	0.052804	0.052804
10.730000	0.042550	0.280012	0.053504	0.053504	0.053504	0.053504
10.740000	0.042550	0.280012	0.054220	0.054220	0.054220	0.054220
10.750000	0.042550	0.280012	0.054951	0.054951	0.054951	0.054951
10.760000	0.042550	0.280012	0.055697	0.055697	0.055697	0.055697
10.770000	0.000000	0.000000	0.056458	0.056458	0.056458	0.056458
10.780000	0.127700	0.621015	0.057235	0.057235	0.057235	0.057235
10.790000	0.127700	0.840035	0.058027	0.058027	0.058027	0.058027
10.800000	0.000000	0.000000	0.058834	0.058834	0.058834	0.058834
10.810000	0.085110	0.391952	0.059657	0.059657	0.059657	0.059657
10.820000	0.085110	0.391952	0.060494	0.060494	0.060494	0.060494
10.830000	0.212800	0.824720	0.061347	0.061347	0.061347	0.061347
10.840000	0.042550	0.280012	0.062215	0.062215	0.062215	0.062215
10.850000	0.042550	0.280012	0.063099	0.063099	0.063099	0.063099
10.860000	0.127700	0.621015	0.063997	0.063997	0.063997	0.063997
10.870000	0.000000	0.000000	0.064911	0.064911	0.064911	0.064911
10.880000	0.000000	0.000000	0.065840	0.065840	0.065840	0.065840
10.890000	0.000000	0.000000	0.066784	0.066784	0.066784	0.066784
10.900000	0.000000	0.000000	0.067744	0.067744	0.067744	0.067744
10.910000	0.042550	0.280012	0.068719	0.068719	0.068719	0.068719
10.920000	0.212800	0.721224	0.069709	0.069709	0.069709	0.069709
10.930000	0.127700	0.475036	0.070714	0.070714	0.070714	0.070714
10.940000	0.000000	0.000000	0.071735	0.071735	0.071735	0.071735
10.950000	0.170200	0.674169	0.072770	0.072770	0.072770	0.072770
10.960000	0.042550	0.280012	0.073821	0.073821	0.073821	0.073821
10.970000	0.000000	0.000000	0.074888	0.074888	0.074888	0.074888
10.980000	0.042550	0.280012	0.075969	0.075969	0.075969	0.075969
10.990000	0.085110	0.391952	0.077066	0.077066	0.077066	0.077066
11.000000	0.085110	0.391952	0.078178	0.078178	0.078178	0.078178
11.010000	0.000000	0.000000	0.079305	0.079305	0.079305	0.079305
11.020000	0.085110	0.560023	0.080447	0.080447	0.080447	0.080447
11.030000	0.000000	0.000000	0.081605	0.081605	0.081605	0.081605
11.040000	0.255300	1.030841	0.082778	0.082778	0.082778	0.082778
11.050000	0.042550	0.280012	0.083966	0.083966	0.083966	0.083966
11.060000	0.085110	0.391952	0.085170	0.085170	0.085170	0.085170
11.070000	0.170200	0.674169	0.086388	0.086388	0.086388	0.086388
11.080000	0.042550	0.280012	0.087622	0.087622	0.087622	0.087622
11.090000	0.085110	0.560023	0.088871	0.088871	0.088871	0.088871
11.100000	0.170200	0.674169	0.090136	0.090136	0.090136	0.090136
11.110000	0.085110	0.560023	0.091415	0.091415	0.091415	0.091415
11.120000	0.042550	0.280012	0.092710	0.092710	0.092710	0.092710
11.130000	0.170200	0.674169	0.094020	0.094020	0.094020	0.094020
11.140000	0.000000	0.000000	0.095346	0.095346	0.095346	0.095346
11.150000	0.000000	0.000000	0.096686	0.096686	0.096686	0.096686
11.160000	0.212800	0.824720	0.098042	0.098042	0.098042	0.098042
11.170000	0.042550	0.280012	0.099413	0.099413	0.099413	0.099413
11.180000	0.042550	0.280012	0.100799	0.100799	0.100799	0.100799
11.190000	0.255300	0.861762	0.102201	0.102201	0.102201	0.102201
11.200000	0.085110	0.560023	0.103618	0.103618	0.103618	0.103618
11.210000	0.212800	0.721224	0.105050	0.105050	0.105050	0.105050
11.220000	0.042550	0.280012	0.106497	0.106497	0.106497	0.106497
11.230000	0.127700	0.475036	0.107959	0.107959	0.107959	0.107959
11.240000	0.170200	0.880059	0.109437	0.109437	0.109437	0.109437
11.250000	0.042550	0.280012	0.110930	0.110930	0.110930	0.110930
11.260000	0.255300	0.950071	0.112438	0.112438	0.112438	0.112438
11.270000	0.127700	0.475036	0.113962	0.113962	0.113962	0.113962
11.280000	0.085110	0.391952	0.115500	0.115500	0.115500	0.115500
11.290000	0.085110	0.560023	0.117054	0.117054	0.117054	0.117054
11.300000	0.170200	0.783903	0.118624	0.118624	0.118624	0.118624
11.310000	0.255300	0.650103	0.120208	0.120208	0.120208	0.120208
11.320000	0.170200	0.783903	0.121808	0.121808	0.121808	0.121808
11.330000	0.042550	0.280012	0.123423	0.123423	0.123423	0.123423
11.340000	0.127700	0.475036	0.125053	0.125053	0.125053	0.125053
11.350000	0.127700	0.621015	0.126698	0.126698	0.126698	0.126698
11.360000	0.000000	0.000000	0.128359	0.128359	0.128359	0.128359
11.370000	0.000000	0.000000	0.130035	0.130035	0.130035	0.130035
11.380000	0.127700	0.621015	0.131726	0.131726	0.131726	0.131726
11.390000	0.127700	0.621015	0.133432	0.133432	0.133432	0.133432
11.400000	0.212800	0.916605	0.135154	0.135154	0.135154	0.135154
11.410000	0.085110	0.391952	0.136890	0.136890	0.136890	0.136890
11.420000	0.170200	0.674169	0.138643	0.138643	0.138643	0.138643
11.430000	0.297900	1.059207	0.140410	0.140410	0.140410	0.140410
11.440000	0.085110	0.560023	0.142192	0.142192	0.142192	0.142192
11.450000	0.085110	0.391952	0.143990	0.143990	0.143990	0.143990
11.460000	0.000000	0.000000	0.145803	0.145803	0.145803	0.145803
11.470000	0.170200	0.674169	0.147632	0.147632	0.147632	0.147632
11.480000	0.127700	0.475036	0.149475	0.149475	0.149475	0.149475
11.490000	0.127700	0.621015	0.151334	0.151334	0.151334	0.151334
11.500000	0.255300	0.763305	0.153208	0.153208	0.153208	0.153208
11.510000	0.000000	0.000000	0.155097	0.155097	0.155097	0.155097
11.520000	0.085110	0.391952	0.157002	0.157002	0.157002	0.157002
11.530000	0.255300	1.030841	0.158921	0.158921	0.158921	0.158921
11.540000	0.085110	0.391952	0.160856	0.160856	0.160856	0.160856
11.550000	0.340400	1.287640	0.162806	0.162806	0.162806	0.162806
11.560000	0.170200	0.542682	0.164772	0.164772	0.164772	0.164772
11.570000	0.127700	0.475036	0.166753	0.166753	0.166753	0.166753
11.580000	0.255300	0.763305	0.168748	0.168748	0.168748	0.168748
11.590000	0.297900	0.980775	0.170760	0.170760	0.170760	0.170760
11.600000	0.085110	0.391952	0.172786	0.172786	0.172786	0.172786
11.610000	0.127700	0.475036	0.174828	0.174828	0.174828	0.174828
11.620000	0.042550	0.280012	0.176885	0.176885	0.176885	0.176885
11.630000	0.127700	0.621015	0.178957	0.178957	0.178957	0.178957
11.640000	0.085110	0.391952	0.181044	0.181044	0.181044	0.181044
11.650000	0.170200	0.674169	0.183147	0.183147	0.183147	0.183147
11.660000	0.170200	0.674169	0.185264	0.185264	0.185264	0.185264
11.670000	0.170200	0.783903	0.187398	0.187398	0.187398	0.187398
11.680000	0.170200	0.674169	0.189546	0.189546	0.189546	0.189546
11.690000	0.425500	1.385875	0.191709	0.191709	0.191709	0.191709
11.700000	0.425500	1.131658	0.193888	0.193888	0.193888	0.193888
11.710000	0.212800	0.916605	0.196082	0.196082	0.196082	0.196082
11.720000	0.042550	0.280012	0.198292	0.198292	0.198292	0.198292
11.730000	0.255300	0.861762	0.200516	0.200516	0.200516	0.200516
11.740000	0.170200	0.674169	0.202756	0.202756	0.202756	0.202756
11.750000	0.297900	0.895500	0.205011	0.205011	0.205011	0.205011
11.760000	0.170200	0.674169	0.207281	0.207281	0.207281	0.207281
11.770000	0.340400	1.156726	0.209567	0.209567	0.209567	0.209567
11.780000	0.085110	0.560023	0.211867	0.211867	0.211867	0.211867
11.790000	0.170200	0.674169	0.214183	0.214183	0.214183	0.214183
11.800000	0.085110	0.560023	0.216515	0.216515	0.216515	0.216515
11.810000	0.297900	0.895500	0.218861	0.218861	0.218861	0.218861
11.820000	0.255300	0.861762	0.221223	0.221223	0.221223	0.221223
11.830000	0.085110	0.391952	0.223600	0.223600	0.223600	0.223600
11.840000	0.085110	0.391952	0.225992	0.225992	0.225992	0.225992
11.850000	0.212800	0.824720	0.228399	0.228399	0.228399	0.228399
11.860000	0.468100	1.080365	0.230822	0.230822	0.230822	0.230822
11.870000	0.255300	0.861762	0.233260	0.233260	0.233260	0.233260
11.880000	0.127700	0.621015	0.235713	0.235713	0.235713	0.235713
11.890000	0.170200	0.542682	0.238181	0.238181	0.238181	0.238181
11.900000	0.340400	1.008968	0.240665	0.240665	0.240665	0.240665
11.910000	0.085110	0.560023	0.243164	0.243164	0.243164	0.243164
11.920000	0.170200	0.674169	0.245678	0.245678	0.245678	0.245678
11.930000	0.212800	0.916605	0.248207	0.248207	0.248207	0.248207
11.940000	0.212800	0.600137	0.250752	0.250752	0.250752	0.250752
11.950000	0.297900	0.980775	0.253312	0.253312	0.253312	0.253312
11.960000	0.255300	0.763305	0.255887	0.255887	0.255887	0.255887
11.970000	0.127700	0.621015	0.258477	0.258477	0.258477	0.258477
