# Energy shift = 0.78
# a_2: 183.22472 +- 0.00099, a_1: -27.781 +- 0.066, a_0: 1.1 +- 1.7, domain: [12.78eV ,15.54eV]
# Y-offset = 0.0+-0.0163, AE = 15.5233+-0.0068, Scale Factor = 28.529+-0.2949, Alpha = 1.4645+-0.0186
# -------------------------------------------------------------
Energy	Counts	Errors	Combined Fit	Fit 1	Fit 2(incl. prev.)
12.780000	6.267000	4.434210	0.522132	0.522132	0.522132
12.790000	0.306700	1.025974	0.514123	0.514123	0.514123
12.800000	0.413300	1.014473	0.506326	0.506326	0.506326
12.810000	0.413300	1.228477	0.498740	0.498740	0.498740
12.820000	0.426700	1.277219	0.491365	0.491365	0.491365
12.830000	0.253300	0.776202	0.484201	0.484201	0.484201
12.840000	0.386700	1.050629	0.477248	0.477248	0.477248
12.850000	0.240000	0.797329	0.470506	0.470506	0.470506
12.860000	0.453300	1.086810	0.463975	0.463975	0.463975
12.870000	0.400000	1.200000	0.457655	0.457655	0.457655
12.880000	0.306700	0.944787	0.451546	0.451546	0.451546
12.890000	0.373300	1.067999	0.445649	0.445649	0.445649
12.900000	0.453300	1.180885	0.439962	0.439962	0.439962
12.910000	0.466700	1.164283	0.434486	0.434486	0.434486
12.920000	0.280000	0.800999	0.429221	0.429221	0.429221
12.930000	0.320000	0.802662	0.424167	0.424167	0.424167
12.940000	0.360000	1.034601	0.419325	0.419325	0.419325
12.950000	0.480000	1.340249	0.414693	0.414693	0.414693
12.960000	0.253300	0.776202	0.410272	0.410272	0.410272
12.970000	0.533300	1.299573	0.406063	0.406063	0.406063
12.980000	0.400000	1.131371	0.402064	0.402064	0.402064
12.990000	0.386700	1.124198	0.398276	0.398276	0.398276
13.000000	0.346700	1.051898	0.394700	0.394700	0.394700
13.010000	0.333300	0.963789	0.391334	0.391334	0.391334
13.020000	0.520000	1.315143	0.388180	0.388180	0.388180
13.030000	0.400000	1.154701	0.385236	0.385236	0.385236
13.040000	0.293300	0.812787	0.382504	0.382504	0.382504
13.050000	0.306700	0.916127	0.379982	0.379982	0.379982
13.060000	0.320000	0.926067	0.377672	0.377672	0.377672
13.070000	0.320000	1.109474	0.375573	0.375573	0.375573
13.080000	0.426700	1.121586	0.373684	0.373684	0.373684
13.090000	0.520000	1.431642	0.372007	0.372007	0.372007
13.100000	0.373300	1.251914	0.370541	0.370541	0.370541
13.110000	0.573300	1.333400	0.369285	0.369285	0.369285
13.120000	0.506700	1.268840	0.368241	0.368241	0.368241
13.130000	0.546700	1.241433	0.367408	0.367408	0.367408
13.140000	0.440000	1.262167	0.366786	0.366786	0.366786
13.150000	0.440000	1.080000	0.366374	0.366374	0.366374
13.160000	0.586700	1.506372	0.366174	0.366174	0.366174
13.170000	0.413300	1.014473	0.366185	0.366185	0.366185
13.180000	0.293300	0.990264	0.366407	0.366407	0.366407
13.190000	0.373300	1.116821	0.366840	0.366840	0.366840
13.200000	0.586700	1.317506	0.367484	0.367484	0.367484
13.210000	0.360000	1.008497	0.368339	0.368339	0.368339
13.220000	0.506700	1.135762	0.369405	0.369405	0.369405
13.230000	0.600000	1.400000	0.370682	0.370682	0.370682
13.240000	0.560000	1.368600	0.372170	0.372170	0.372170
13.250000	0.533300	1.436044	0.373869	0.373869	0.373869
13.260000	0.333300	1.017623	0.375779	0.375779	0.375779
13.270000	0.493300	1.365023	0.377901	0.377901	0.377901
13.280000	0.413300	1.090484	0.380233	0.380233	0.380233
13.290000	0.533300	1.299573	0.382776	0.382776	0.382776
13.300000	0.533300	1.169995	0.385530	0.385530	0.385530
13.310000	0.546700	1.262731	0.388495	0.388495	0.388495
13.320000	0.680000	1.439074	0.391672	0.391672	0.391672
13.330000	0.600000	1.361372	0.395059	0.395059	0.395059
13.340000	0.546700	1.304284	0.398657	0.398657	0.398657
13.350000	0.573300	1.353251	0.402467	0.402467	0.402467
13.360000	0.560000	1.425856	0.406487	0.406487	0.406487
13.370000	0.546700	1.241433	0.410719	0.410719	0.410719
13.380000	0.360000	0.866256	0.415161	0.415161	0.415161
13.390000	0.600000	1.437591	0.419814	0.419814	0.419814
13.400000	0.626700	1.309181	0.424679	0.424679	0.424679
13.410000	0.733300	1.486233	0.429755	0.429755	0.429755
13.420000	0.680000	1.528921	0.435041	0.435041	0.435041
13.430000	0.546700	1.241433	0.440539	0.440539	0.440539
13.440000	0.600000	1.400000	0.446247	0.446247	0.446247
13.450000	0.480000	1.099818	0.452167	0.452167	0.452167
13.460000	0.773300	1.579648	0.458298	0.458298	0.458298
13.470000	0.666700	1.319933	0.464639	0.464639	0.464639
13.480000	0.773300	1.596440	0.471192	0.471192	0.471192
13.490000	0.800000	1.681269	0.477956	0.477956	0.477956
13.500000	0.693300	1.404501	0.484930	0.484930	0.484930
13.510000	0.773300	1.579648	0.492116	0.492116	0.492116
13.520000	0.773300	1.596440	0.499513	0.499513	0.499513
13.530000	0.613300	1.345544	0.507121	0.507121	0.507121
13.540000	0.480000	1.279166	0.514940	0.514940	0.514940
13.550000	0.600000	1.321615	0.522970	0.522970	0.522970
13.560000	0.746700	1.317506	0.531211	0.531211	0.531211
13.570000	0.626700	1.368925	0.539663	0.539663	0.539663
13.580000	0.653300	1.451375	0.548326	0.548326	0.548326
13.590000	0.466700	1.164283	0.557200	0.557200	0.557200
13.600000	0.573300	1.292783	0.566285	0.566285	0.566285
13.610000	0.720000	1.519298	0.575581	0.575581	0.575581
13.620000	0.840000	1.716896	0.585088	0.585088	0.585088
13.630000	0.746700	1.506372	0.594806	0.594806	0.594806
13.640000	0.800000	1.514376	0.604735	0.604735	0.604735
13.650000	0.533300	1.214724	0.614875	0.614875	0.614875
13.660000	0.773300	1.528165	0.625226	0.625226	0.625226
13.670000	0.613300	1.198814	0.635789	0.635789	0.635789
13.680000	0.533300	1.146977	0.646562	0.646562	0.646562
13.690000	0.760000	1.340050	0.657546	0.657546	0.657546
13.700000	0.773300	1.456693	0.668741	0.668741	0.668741
13.710000	0.720000	1.410059	0.680148	0.680148	0.680148
13.720000	0.786700	1.494821	0.691765	0.691765	0.691765
13.730000	0.586700	1.433814	0.703594	0.703594	0.703594
13.740000	0.573300	1.271989	0.715633	0.715633	0.715633
13.750000	0.800000	1.632993	0.727883	0.727883	0.727883
13.760000	1.080000	1.827640	0.740345	0.740345	0.740345
13.770000	0.760000	1.723098	0.753017	0.753017	0.753017
13.780000	0.640000	1.312910	0.765901	0.765901	0.765901
13.790000	1.027000	1.724129	0.778995	0.778995	0.778995
13.800000	0.826700	1.569487	0.792301	0.792301	0.792301
13.810000	0.706700	1.407346	0.805818	0.805818	0.805818
13.820000	0.853300	1.589074	0.819545	0.819545	0.819545
13.830000	0.680000	1.323228	0.833484	0.833484	0.833484
13.840000	0.680000	1.493631	0.847634	0.847634	0.847634
13.850000	0.760000	1.508553	0.861994	0.861994	0.861994
13.860000	1.013000	1.754942	0.876566	0.876566	0.876566
13.870000	1.040000	1.708333	0.891349	0.891349	0.891349
13.880000	0.840000	1.536576	0.906343	0.906343	0.906343
13.890000	0.840000	1.501466	0.921547	0.921547	0.921547
13.900000	0.653300	1.451375	0.936963	0.936963	0.936963
13.910000	1.160000	2.107384	0.952590	0.952590	0.952590
13.920000	0.826700	1.668319	0.968428	0.968428	0.968428
13.930000	0.946700	1.784327	0.984477	0.984477	0.984477
13.940000	0.880000	1.557434	1.000737	1.000737	1.000737
13.950000	1.160000	1.807687	1.017208	1.017208	1.017208
13.960000	0.933300	1.783878	1.033890	1.033890	1.033890
13.970000	0.893300	1.657897	1.050783	1.050783	1.050783
13.980000	0.960000	1.676822	1.067887	1.067887	1.067887
13.990000	0.973300	1.708593	1.085202	1.085202	1.085202
14.000000	1.093000	1.827007	1.102728	1.102728	1.102728
14.010000	1.013000	1.858267	1.120465	1.120465	1.120465
14.020000	0.920000	1.722479	1.138413	1.138413	1.138413
14.030000	0.986700	1.799951	1.156573	1.156573	1.156573
14.040000	1.267000	2.045048	1.174943	1.174943	1.174943
14.050000	0.826700	1.535129	1.193524	1.193524	1.193524
14.060000	0.866700	1.623439	1.212316	1.212316	1.212316
14.070000	0.933300	1.857118	1.231320	1.231320	1.231320
14.080000	1.227000	1.815293	1.250534	1.250534	1.250534
14.090000	1.360000	1.866476	1.269959	1.269959	1.269959
14.100000	1.093000	1.797579	1.289596	1.289596	1.289596
14.110000	1.107000	1.840821	1.309443	1.309443	1.309443
14.120000	1.307000	2.226946	1.329502	1.329502	1.329502
14.130000	1.333000	2.008869	1.349771	1.349771	1.349771
14.140000	1.173000	2.015760	1.370252	1.370252	1.370252
14.150000	1.173000	1.989126	1.390943	1.390943	1.390943
14.160000	1.213000	1.726602	1.411846	1.411846	1.411846
14.170000	1.293000	2.041394	1.432959	1.432959	1.432959
14.180000	1.827000	2.612143	1.454284	1.454284	1.454284
14.190000	1.480000	2.244163	1.475819	1.475819	1.475819
14.200000	1.547000	2.054545	1.497566	1.497566	1.497566
14.210000	1.440000	2.105485	1.519524	1.519524	1.519524
14.220000	1.600000	2.297825	1.541692	1.541692	1.541692
14.230000	1.480000	1.853717	1.564072	1.564072	1.564072
14.240000	1.560000	2.102316	1.586663	1.586663	1.586663
14.250000	1.587000	2.017215	1.609465	1.609465	1.609465
14.260000	1.387000	2.273871	1.632477	1.632477	1.632477
14.270000	1.453000	1.985234	1.655701	1.655701	1.655701
14.280000	1.587000	2.095031	1.679136	1.679136	1.679136
14.290000	1.613000	2.112776	1.702782	1.702782	1.702782
14.300000	1.640000	2.066495	1.726639	1.726639	1.726639
14.310000	1.853000	2.445095	1.750707	1.750707	1.750707
14.320000	1.827000	2.550155	1.774986	1.774986	1.774986
14.330000	1.453000	2.038256	1.799476	1.799476	1.799476
14.340000	1.533000	2.083800	1.824177	1.824177	1.824177
14.350000	1.773000	2.209515	1.849089	1.849089	1.849089
14.360000	1.933000	2.415689	1.874212	1.874212	1.874212
14.370000	1.800000	2.430363	1.899546	1.899546	1.899546
14.380000	1.587000	2.289648	1.925091	1.925091	1.925091
14.390000	1.840000	2.427839	1.950847	1.950847	1.950847
14.400000	2.067000	2.359849	1.976815	1.976815	1.976815
14.410000	1.733000	2.317086	2.002993	2.002993	2.002993
14.420000	1.800000	2.259794	2.029382	2.029382	2.029382
14.430000	1.853000	2.228263	2.055982	2.055982	2.055982
14.440000	2.280000	2.540656	2.082794	2.082794	2.082794
14.450000	2.320000	2.541181	2.109816	2.109816	2.109816
14.460000	1.760000	2.064558	2.137049	2.137049	2.137049
14.470000	1.973000	2.540201	2.164494	2.164494	2.164494
14.480000	2.013000	2.658287	2.192149	2.192149	2.192149
14.490000	2.400000	2.633122	2.220015	2.220015	2.220015
14.500000	2.320000	2.743040	2.248093	2.248093	2.248093
14.510000	2.413000	2.859339	2.276381	2.276381	2.276381
14.520000	2.360000	2.713620	2.304881	2.304881	2.304881
14.530000	2.227000	2.361205	2.333591	2.333591	2.333591
14.540000	2.133000	2.305549	2.362513	2.362513	2.362513
14.550000	2.320000	2.713718	2.391645	2.391645	2.391645
14.560000	2.413000	2.868650	2.420989	2.420989	2.420989
14.570000	2.307000	2.589586	2.450544	2.450544	2.450544
14.580000	1.920000	2.431789	2.480309	2.480309	2.480309
14.590000	2.307000	2.462916	2.510286	2.510286	2.510286
14.600000	2.267000	2.351359	2.540474	2.540474	2.540474
14.610000	2.867000	3.093362	2.570873	2.570873	2.570873
14.620000	2.387000	2.526623	2.601482	2.601482	2.601482
14.630000	2.333000	2.348522	2.632303	2.632303	2.632303
14.640000	2.547000	2.874223	2.663335	2.663335	2.663335
14.650000	2.787000	2.901923	2.694578	2.694578	2.694578
14.660000	2.573000	2.676681	2.726032	2.726032	2.726032
14.670000	2.640000	2.905810	2.757697	2.757697	2.757697
14.680000	3.200000	3.265986	2.789573	2.789573	2.789573
14.690000	2.640000	2.812543	2.821659	2.821659	2.821659
14.700000	2.867000	2.813460	2.853957	2.853957	2.853957
14.710000	2.933000	3.188870	2.886466	2.886466	2.886466
14.720000	2.893000	2.668699	2.919187	2.919187	2.919187
14.730000	2.920000	2.990028	2.952118	2.952118	2.952118
14.740000	2.987000	2.964201	2.985260	2.985260	2.985260
14.750000	3.027000	3.104720	3.018613	3.018613	3.018613
14.760000	2.960000	2.630285	3.052177	3.052177	3.052177
14.770000	2.747000	2.944343	3.085952	3.085952	3.085952
14.780000	3.040000	2.690427	3.119938	3.119938	3.119938
14.790000	3.227000	2.778841	3.154136	3.154136	3.154136
14.800000	3.400000	3.121965	3.188544	3.188544	3.188544
14.810000	3.107000	2.944252	3.223163	3.223163	3.223163
14.820000	3.160000	3.134922	3.257993	3.257993	3.257993
14.830000	2.853000	3.066783	3.293035	3.293035	3.293035
14.840000	3.053000	3.180748	3.328287	3.328287	3.328287
14.850000	3.320000	2.928754	3.363750	3.363750	3.363750
14.860000	2.973000	2.807007	3.399425	3.399425	3.399425
14.870000	3.347000	3.326633	3.435310	3.435310	3.435310
14.880000	3.240000	2.927297	3.471407	3.471407	3.471407
14.890000	3.400000	3.214550	3.507714	3.507714	3.507714
14.900000	4.093000	3.527694	3.544233	3.544233	3.544233
14.910000	2.960000	3.008610	3.580962	3.580962	3.580962
14.920000	4.000000	3.509986	3.617903	3.617903	3.617903
14.930000	3.627000	3.203221	3.655055	3.655055	3.655055
14.940000	3.920000	3.353645	3.692417	3.692417	3.692417
14.950000	3.107000	2.944252	3.729991	3.729991	3.729991
14.960000	3.560000	3.628553	3.767776	3.767776	3.767776
14.970000	3.613000	3.147034	3.805771	3.805771	3.805771
14.980000	3.573000	3.246222	3.843978	3.843978	3.843978
14.990000	3.867000	3.180496	3.882396	3.882396	3.882396
15.000000	4.533000	3.778301	3.921025	3.921025	3.921025
15.010000	3.627000	3.639683	3.959864	3.959864	3.959864
15.020000	3.627000	3.697831	3.998915	3.998915	3.998915
15.030000	4.107000	3.635284	4.038177	4.038177	4.038177
15.040000	3.827000	3.708992	4.077650	4.077650	4.077650
15.050000	4.360000	3.767015	4.117334	4.117334	4.117334
15.060000	4.427000	3.582079	4.157229	4.157229	4.157229
15.070000	4.280000	3.479693	4.197335	4.197335	4.197335
15.080000	3.453000	3.281436	4.237652	4.237652	4.237652
15.090000	4.040000	3.162025	4.278180	4.278180	4.278180
15.100000	5.040000	4.135827	4.318919	4.318919	4.318919
15.110000	4.560000	3.746073	4.359869	4.359869	4.359869
15.120000	4.387000	3.360132	4.401030	4.401030	4.401030
15.130000	4.480000	3.367927	4.442403	4.442402	4.442403
15.140000	4.467000	3.669090	4.483986	4.483985	4.483986
15.150000	4.840000	3.817643	4.525781	4.525780	4.525781
15.160000	4.413000	3.754440	4.567787	4.567785	4.567787
15.170000	5.013000	3.560874	4.610005	4.610001	4.610005
15.180000	4.920000	3.896186	4.652436	4.652428	4.652436
15.190000	4.333000	3.413047	4.695079	4.695067	4.695079
15.200000	5.480000	4.101577	4.737937	4.737916	4.737937
15.210000	4.653000	3.784154	4.781011	4.780976	4.781011
15.220000	5.213000	3.992638	4.824304	4.824248	4.824304
15.230000	4.987000	4.250469	4.867822	4.867730	4.867822
15.240000	5.013000	4.231606	4.911570	4.911424	4.911570
15.250000	4.973000	3.991569	4.955560	4.955328	4.955560
15.260000	4.747000	4.242934	4.999805	4.999444	4.999805
15.270000	5.333000	4.017738	5.044327	5.043770	5.044327
15.280000	4.947000	3.582898	5.089155	5.088308	5.089155
15.290000	4.973000	3.507985	5.134332	5.133056	5.134332
15.300000	5.600000	4.338971	5.179914	5.178016	5.179914
15.310000	5.200000	3.801754	5.225977	5.223186	5.225977
15.320000	5.267000	4.042551	5.272624	5.268568	5.272624
15.330000	5.933000	4.638486	5.319988	5.314161	5.319988
15.340000	5.347000	4.390879	5.368242	5.359964	5.368242
15.350000	5.707000	4.285708	5.417607	5.405979	5.417607
15.360000	5.733000	4.070490	5.468357	5.452205	5.468357
15.370000	5.600000	4.118252	5.520834	5.498642	5.520834
15.380000	6.200000	4.753946	5.575451	5.545289	5.575451
15.390000	6.000000	3.843609	5.632706	5.592148	5.632706
15.400000	5.933000	4.522045	5.693181	5.639218	5.693181
15.410000	5.720000	4.208119	5.757557	5.686499	5.757557
15.420000	6.160000	4.587054	5.826608	5.733991	5.826608
15.430000	5.933000	4.498395	5.901203	5.781694	5.901203
15.440000	6.400000	4.239497	5.982306	5.829608	5.982306
15.450000	6.667000	4.343066	6.070959	5.877733	6.070959
15.460000	6.587000	4.587209	6.168277	5.926069	6.168277
15.470000	6.880000	4.917886	6.275428	5.974616	6.275428
15.480000	5.893000	4.250720	6.393609	6.023374	6.393609
15.490000	6.947000	4.972976	6.524029	6.072343	6.524029
15.500000	6.813000	4.258930	6.667879	6.121523	6.667879
15.510000	6.813000	4.125347	6.826306	6.170914	6.826306
15.520000	7.093000	4.645208	7.000386	6.220517	7.000386
15.530000	6.840000	4.377336	7.191101	6.270330	7.191101
15.540000	8.040000	4.802610	7.399315	6.320354	7.399315
15.550000	8.040000	5.433084	7.625757	6.370589	7.625757
15.560000	7.667000	4.723934	7.871009	6.421036	7.871009
15.570000	8.387000	5.269771	8.135496	6.471693	8.135496
15.580000	8.280000	5.153795	8.419484	6.522561	8.419484
15.590000	8.253000	4.906033	8.723086	6.573641	8.723086
15.600000	8.480000	4.956773	9.046269	6.624931	9.046269
15.610000	9.587000	5.206645	9.388864	6.676432	9.388864
15.620000	9.787000	5.446206	9.750588	6.728145	9.750588
15.630000	10.640000	5.402814	10.131054	6.780068	10.131054
15.640000	11.050000	5.579471	10.529800	6.832203	10.529800
15.650000	10.450000	5.893033	10.946298	6.884548	10.946298
15.660000	11.190000	5.460632	11.379985	6.937105	11.379985
15.670000	11.430000	6.001497	11.830268	6.989873	11.830268
15.680000	12.490000	5.932675	12.296549	7.042851	12.296549
15.690000	12.720000	6.001244	12.778233	7.096041	12.778233
15.700000	13.280000	6.569749	13.274740	7.149442	13.274740
15.710000	13.800000	7.338483	13.785515	7.203053	13.785515
15.720000	14.640000	6.855927	14.310027	7.256876	14.310027
15.730000	15.520000	6.423623	14.847782	7.310910	14.847782
15.740000	15.070000	7.116804	15.398316	7.365154	15.398316
15.750000	15.950000	7.046311	15.961201	7.419610	15.961201
15.760000	16.320000	5.892730	16.536044	7.474277	16.536044
15.770000	16.560000	7.753262	17.122479	7.529155	17.122479
15.780000	17.210000	7.098908	17.720175	7.584244	17.720175
15.790000	17.530000	7.502593	18.328824	7.639544	18.328824
15.800000	18.920000	7.584651	18.948144	7.695055	18.948144
15.810000	19.350000	7.566582	19.577877	7.750777	19.577877
15.820000	20.800000	7.436845	20.217783	7.806710	20.217783
15.830000	20.590000	7.853821	20.867639	7.862854	20.867639
15.840000	22.960000	8.280805	21.527240	7.919209	21.527240
15.850000	21.650000	8.144518	22.196393	7.975775	22.196393
15.860000	23.930000	8.347189	22.874918	8.032552	22.874918
15.870000	22.970000	8.408684	23.562645	8.089540	23.562645
15.880000	25.390000	8.510219	24.259416	8.146739	24.259416
15.890000	24.480000	7.651335	24.965080	8.204149	24.965080
15.900000	25.950000	8.233094	25.679494	8.261770	25.679494
15.910000	27.200000	9.000741	26.402523	8.319603	26.402523
15.920000	26.890000	10.160149	27.134039	8.377646	27.134039
15.930000	28.410000	9.694801	27.873917	8.435900	27.873917
15.940000	29.040000	8.943437	28.622042	8.494366	28.622042
15.950000	29.720000	9.243463	29.378301	8.553042	29.378301
15.960000	31.720000	9.868549	30.142585	8.611929	30.142585
15.970000	31.120000	10.442171	30.914792	8.671028	30.914792
15.980000	31.270000	10.452220	31.694823	8.730337	31.694823
15.990000	32.710000	9.636422	32.482582	8.789858	32.482582
16.000000	32.280000	9.748928	33.277977	8.849589	33.277977
16.010000	33.970000	10.512182	34.080919	8.909531	34.080919
16.020000	34.010000	10.806163	34.891323	8.969685	34.891323
16.030000	33.870000	9.359963	35.709106	9.030050	35.709106
16.040000	34.530000	10.277916	36.534189	9.090625	36.534189
16.050000	36.400000	10.412813	37.366493	9.151412	37.366493
16.060000	38.030000	12.326636	38.205945	9.212409	38.205945
16.070000	39.440000	10.284279	39.052470	9.273618	39.052470
16.080000	38.440000	11.120839	39.906000	9.335038	39.906000
16.090000	40.810000	10.625998	40.766466	9.396668	40.766466
16.100000	41.230000	11.597211	41.633802	9.458510	41.633802
16.110000	42.330000	11.742610	42.507942	9.520563	42.507942
16.120000	42.120000	11.114507	43.388825	9.582827	43.388825
16.130000	42.890000	11.978952	44.276390	9.645302	44.276390
16.140000	45.650000	12.784880	45.170578	9.707987	45.170578
16.150000	45.370000	10.428517	46.071330	9.770884	46.071330
16.160000	48.470000	13.918653	46.978591	9.833992	46.978591
16.170000	48.520000	11.781183	47.892305	9.897311	47.892305
16.180000	48.550000	12.274411	48.812421	9.960841	48.812421
