# Energy shift = 0.78
# a_1: -2.326 +- 0.028, a_0: 0.2 +- 1.4, domain: [10.78eV ,12.75eV]
# Y-offset = 0.01+-0.0124, AE = 12.9221+-0.0637, Scale Factor = 2.4616+-0.4156, Alpha = 2.5+-0.1688
# Y-offset = 0.01+-0.0279, AE = 14.1929+-0.0431, Scale Factor = 11.6779+-1.2235, Alpha = 2.2797+-0.1078
# -------------------------------------------------------------
Energy	Counts	Errors	Combined Fit	Fit 1	Fit 2(incl. prev.)	Fit 3(incl. prev.)
10.780000	23.040000	9.348711	0.005336	-0.014664	-0.004664	0.005336
10.790000	0.080000	0.391918	0.007480	-0.012520	-0.002520	0.007480
10.800000	0.026670	0.229395	0.009625	-0.010375	-0.000375	0.009625
10.810000	0.106700	0.555538	0.011769	-0.008231	0.001769	0.011769
10.820000	0.106700	0.555538	0.013913	-0.006087	0.003913	0.013913
10.830000	0.053330	0.322215	0.016057	-0.003943	0.006057	0.016057
10.840000	0.133300	0.596285	0.018201	-0.001799	0.008201	0.018201
10.850000	0.133300	0.679869	0.020346	0.000346	0.010346	0.020346
10.860000	0.000000	0.000000	0.022490	0.002490	0.012490	0.022490
10.870000	0.053330	0.322215	0.024634	0.004634	0.014634	0.024634
10.880000	0.053330	0.322215	0.026778	0.006778	0.016778	0.026778
10.890000	0.133300	0.679869	0.028922	0.008922	0.018922	0.028922
10.900000	0.133300	0.679869	0.031067	0.011067	0.021067	0.031067
10.910000	0.133300	0.498888	0.033211	0.013211	0.023211	0.033211
10.920000	0.106700	0.555538	0.035355	0.015355	0.025355	0.035355
10.930000	0.053330	0.458791	0.037499	0.017499	0.027499	0.037499
10.940000	0.106700	0.555538	0.039643	0.019643	0.029643	0.039643
10.950000	0.133300	0.596285	0.041788	0.021788	0.031788	0.041788
10.960000	0.026670	0.229395	0.043932	0.023932	0.033932	0.043932
10.970000	0.106700	0.449395	0.046076	0.026076	0.036076	0.046076
10.980000	0.106700	0.555538	0.048220	0.028220	0.038220	0.048220
10.990000	0.213300	0.898789	0.050365	0.030365	0.040365	0.050365
11.000000	0.026670	0.229395	0.052509	0.032509	0.042509	0.052509
11.010000	0.133300	0.596285	0.054653	0.034653	0.044653	0.054653
11.020000	0.053330	0.322215	0.056797	0.036797	0.046797	0.056797
11.030000	0.186700	0.742847	0.058941	0.038941	0.048941	0.058941
11.040000	0.133300	0.596285	0.061086	0.041086	0.051086	0.061086
11.050000	0.080000	0.510163	0.063230	0.043230	0.053230	0.063230
11.060000	0.186700	0.742847	0.065374	0.045374	0.055374	0.065374
11.070000	0.133300	0.596285	0.067518	0.047518	0.057518	0.067518
11.080000	0.053330	0.322215	0.069662	0.049662	0.059662	0.069662
11.090000	0.106700	0.555538	0.071807	0.051807	0.061807	0.071807
11.100000	0.026670	0.229395	0.073951	0.053951	0.063951	0.073951
11.110000	0.160000	0.633298	0.076095	0.056095	0.066095	0.076095
11.120000	0.026670	0.229395	0.078239	0.058239	0.068239	0.078239
11.130000	0.080000	0.510163	0.080383	0.060383	0.070383	0.080383
11.140000	0.053330	0.322215	0.082528	0.062528	0.072528	0.082528
11.150000	0.160000	0.633298	0.084672	0.064672	0.074672	0.084672
11.160000	0.026670	0.229395	0.086816	0.066816	0.076816	0.086816
11.170000	0.053330	0.458791	0.088960	0.068960	0.078960	0.088960
11.180000	0.160000	0.633298	0.091104	0.071104	0.081104	0.091104
11.190000	0.133300	0.754247	0.093249	0.073249	0.083249	0.093249
11.200000	0.026670	0.229395	0.095393	0.075393	0.085393	0.095393
11.210000	0.133300	0.596285	0.097537	0.077537	0.087537	0.097537
11.220000	0.160000	0.633298	0.099681	0.079681	0.089681	0.099681
11.230000	0.106700	0.449395	0.101825	0.081825	0.091825	0.101825
11.240000	0.000000	0.000000	0.103970	0.083970	0.093970	0.103970
11.250000	0.026670	0.229395	0.106114	0.086114	0.096114	0.106114
11.260000	0.133300	0.596285	0.108258	0.088258	0.098258	0.108258
11.270000	0.186700	0.667200	0.110402	0.090402	0.100402	0.110402
11.280000	0.186700	0.667200	0.112546	0.092546	0.102546	0.112546
11.290000	0.026670	0.229395	0.114691	0.094691	0.104691	0.114691
11.300000	0.106700	0.555538	0.116835	0.096835	0.106835	0.116835
11.310000	0.106700	0.449395	0.118979	0.098979	0.108979	0.118979
11.320000	0.133300	0.596285	0.121123	0.101123	0.111123	0.121123
11.330000	0.266700	0.884433	0.123267	0.103267	0.113267	0.123267
11.340000	0.080000	0.510163	0.125412	0.105412	0.115412	0.125412
11.350000	0.400000	1.306395	0.127556	0.107556	0.117556	0.127556
11.360000	0.266700	0.821922	0.129700	0.109700	0.119700	0.129700
11.370000	0.160000	0.633298	0.131844	0.111844	0.121844	0.131844
11.380000	0.240000	0.727370	0.133988	0.113988	0.123988	0.133988
11.390000	0.133300	0.596285	0.136133	0.116133	0.126133	0.136133
11.400000	0.213300	0.837350	0.138277	0.118277	0.128277	0.138277
11.410000	0.133300	0.596285	0.140421	0.120421	0.130421	0.140421
11.420000	0.266700	0.942809	0.142565	0.122565	0.132565	0.142565
11.430000	0.106700	0.449395	0.144709	0.124709	0.134709	0.144709
11.440000	0.106700	0.555538	0.146854	0.126854	0.136854	0.146854
11.450000	0.160000	0.633298	0.148998	0.128998	0.138998	0.148998
11.460000	0.266700	0.942809	0.151142	0.131142	0.141142	0.151142
11.470000	0.106700	0.555538	0.153286	0.133286	0.143286	0.153286
11.480000	0.186700	0.667200	0.155431	0.135431	0.145431	0.155431
11.490000	0.133300	0.498888	0.157575	0.137575	0.147575	0.157575
11.500000	0.213300	0.698443	0.159719	0.139719	0.149719	0.159719
11.510000	0.106700	0.449395	0.161863	0.141863	0.151863	0.161863
11.520000	0.160000	0.542586	0.164007	0.144007	0.154007	0.164007
11.530000	0.266700	0.754247	0.166152	0.146152	0.156152	0.166152
11.540000	0.240000	0.861626	0.168296	0.148296	0.158296	0.168296
11.550000	0.106700	0.449395	0.170440	0.150440	0.160440	0.170440
11.560000	0.133300	0.596285	0.172584	0.152584	0.162584	0.172584
11.570000	0.080000	0.510163	0.174728	0.154728	0.164728	0.174728
11.580000	0.400000	1.032796	0.176873	0.156873	0.166873	0.176873
11.590000	0.106700	0.722465	0.179017	0.159017	0.169017	0.179017
11.600000	0.080000	0.510163	0.181161	0.161161	0.171161	0.181161
11.610000	0.133300	0.596285	0.183305	0.163305	0.173305	0.183305
11.620000	0.453300	1.407535	0.185449	0.165449	0.175449	0.185449
11.630000	0.106700	0.449395	0.187594	0.167594	0.177594	0.187594
11.640000	0.106700	0.555538	0.189738	0.169738	0.179738	0.189738
11.650000	0.266700	0.884433	0.191882	0.171882	0.181882	0.191882
11.660000	0.320000	0.926067	0.194026	0.174026	0.184026	0.194026
11.670000	0.320000	0.981971	0.196170	0.176170	0.186170	0.196170
11.680000	0.213300	0.698443	0.198315	0.178315	0.188315	0.198315
11.690000	0.186700	0.742847	0.200459	0.180459	0.190459	0.200459
11.700000	0.240000	0.727370	0.202603	0.182603	0.192603	0.202603
11.710000	0.240000	0.797329	0.204747	0.184747	0.194747	0.204747
11.720000	0.160000	0.633298	0.206891	0.186891	0.196891	0.206891
11.730000	0.266700	0.754247	0.209036	0.189036	0.199036	0.209036
11.740000	0.133300	0.596285	0.211180	0.191180	0.201180	0.211180
11.750000	0.213300	0.771031	0.213324	0.193324	0.203324	0.213324
11.760000	0.213300	0.617378	0.215468	0.195468	0.205468	0.215468
11.770000	0.320000	1.085173	0.217612	0.197612	0.207612	0.217612
11.780000	0.213300	0.771031	0.219757	0.199757	0.209757	0.219757
11.790000	0.480000	1.215017	0.221901	0.201901	0.211901	0.221901
11.800000	0.133300	0.498888	0.224045	0.204045	0.214045	0.224045
11.810000	0.213300	0.698443	0.226189	0.206189	0.216189	0.226189
11.820000	0.186700	0.667200	0.228333	0.208333	0.218333	0.228333
11.830000	0.186700	0.742847	0.230478	0.210478	0.220478	0.230478
11.840000	0.106700	0.555538	0.232622	0.212622	0.222622	0.232622
11.850000	0.373300	1.016836	0.234766	0.214766	0.224766	0.234766
11.860000	0.266700	0.821922	0.236910	0.216910	0.226910	0.236910
11.870000	0.266700	0.679869	0.239054	0.219054	0.229054	0.239054
11.880000	0.186700	0.874732	0.241199	0.221199	0.231199	0.241199
11.890000	0.133300	0.498888	0.243343	0.223343	0.233343	0.243343
11.900000	0.213300	0.898789	0.245487	0.225487	0.235487	0.245487
11.910000	0.373300	0.962958	0.247631	0.227631	0.237631	0.247631
11.920000	0.453300	0.956289	0.249776	0.229776	0.239776	0.249776
11.930000	0.346700	0.886842	0.251920	0.231920	0.241920	0.251920
11.940000	0.346700	0.945069	0.254064	0.234064	0.244064	0.254064
11.950000	0.160000	0.712554	0.256208	0.236208	0.246208	0.256208
11.960000	0.186700	0.742847	0.258352	0.238352	0.248352	0.258352
11.970000	0.320000	1.085173	0.260497	0.240497	0.250497	0.260497
11.980000	0.160000	0.542586	0.262641	0.242641	0.252641	0.262641
11.990000	0.293300	0.905882	0.264785	0.244785	0.254785	0.264785
12.000000	0.293300	1.016836	0.266929	0.246929	0.256929	0.266929
12.010000	0.266700	0.884433	0.269073	0.249073	0.259073	0.269073
12.020000	0.266700	0.754247	0.271218	0.251218	0.261218	0.271218
12.030000	0.560000	1.407030	0.273362	0.253362	0.263362	0.273362
12.040000	0.133300	0.498888	0.275506	0.255506	0.265506	0.275506
12.050000	0.320000	1.266596	0.277650	0.257650	0.267650	0.277650
12.060000	0.240000	0.797329	0.279794	0.259794	0.269794	0.279794
12.070000	0.346700	1.101433	0.281939	0.261939	0.271939	0.281939
12.080000	0.346700	0.945069	0.284083	0.264083	0.274083	0.284083
12.090000	0.213300	0.771031	0.286227	0.266227	0.276227	0.286227
12.100000	0.266700	0.942809	0.288371	0.268371	0.278371	0.288371
12.110000	0.480000	1.215017	0.290515	0.270515	0.280515	0.290515
12.120000	0.320000	0.866564	0.292660	0.272660	0.282660	0.292660
12.130000	0.320000	0.926067	0.294804	0.274804	0.284804	0.294804
12.140000	0.346700	0.945069	0.296948	0.276948	0.286948	0.296948
12.150000	0.133300	0.596285	0.299092	0.279092	0.289092	0.299092
12.160000	0.160000	0.542586	0.301236	0.281236	0.291236	0.301236
12.170000	0.213300	0.771031	0.303381	0.283381	0.293381	0.303381
12.180000	0.320000	0.926067	0.305525	0.285525	0.295525	0.305525
12.190000	0.320000	0.926067	0.307669	0.287669	0.297669	0.307669
12.200000	0.240000	0.797329	0.309813	0.289813	0.299813	0.309813
12.210000	0.160000	0.633298	0.311957	0.291957	0.301957	0.311957
12.220000	0.453300	1.061990	0.314102	0.294102	0.304102	0.314102
12.230000	0.160000	0.633298	0.316246	0.296246	0.306246	0.316246
12.240000	0.320000	0.866564	0.318390	0.298390	0.308390	0.318390
12.250000	0.453300	1.111076	0.320534	0.300534	0.310534	0.320534
12.260000	0.293300	0.962958	0.322678	0.302678	0.312678	0.322678
12.270000	0.480000	1.123803	0.324823	0.304823	0.314823	0.324823
12.280000	0.320000	0.866564	0.326967	0.306967	0.316967	0.326967
12.290000	0.346700	1.051898	0.329111	0.309111	0.319111	0.329111
12.300000	0.426700	1.318315	0.331255	0.311255	0.321255	0.331255
12.310000	0.266700	0.821922	0.333399	0.313399	0.323399	0.333399
12.320000	0.346700	0.886842	0.335544	0.315544	0.325544	0.335544
12.330000	0.346700	1.051898	0.337688	0.317688	0.327688	0.337688
12.340000	0.560000	1.202664	0.339832	0.319832	0.329832	0.339832
12.350000	0.613300	1.565404	0.341976	0.321976	0.331976	0.341976
12.360000	0.400000	0.979796	0.344121	0.324121	0.334121	0.344121
12.370000	0.213300	0.617378	0.346265	0.326265	0.336265	0.346265
12.380000	0.320000	1.179378	0.348409	0.328409	0.338409	0.348409
12.390000	0.480000	1.024500	0.350553	0.330553	0.340553	0.350553
12.400000	0.400000	0.979796	0.352697	0.332697	0.342697	0.352697
12.410000	0.506700	1.226087	0.354842	0.334842	0.344842	0.354842
12.420000	0.293300	0.962958	0.356986	0.336986	0.346986	0.356986
12.430000	0.240000	0.861626	0.359130	0.339130	0.349130	0.359130
12.440000	0.453300	1.010522	0.361274	0.341274	0.351274	0.361274
12.450000	0.586700	1.167257	0.363418	0.343418	0.353418	0.363418
12.460000	0.613300	1.176360	0.365563	0.345563	0.355563	0.365563
12.470000	0.320000	0.926067	0.367707	0.347707	0.357707	0.367707
12.480000	0.453300	1.203255	0.369851	0.349851	0.359851	0.369851
12.490000	0.586700	1.337593	0.371995	0.351995	0.361995	0.371995
12.500000	0.293300	0.844959	0.374139	0.354139	0.364139	0.374139
12.510000	0.240000	0.797329	0.376284	0.356284	0.366284	0.376284
12.520000	0.346700	0.824513	0.378428	0.358428	0.368428	0.378428
12.530000	0.480000	1.024500	0.380572	0.360572	0.370572	0.380572
12.540000	0.293300	0.779287	0.382716	0.362716	0.372716	0.382716
12.550000	0.480000	1.075298	0.384860	0.364860	0.374860	0.384860
12.560000	0.506700	1.181788	0.387005	0.367005	0.377005	0.387005
12.570000	0.426700	1.190779	0.389149	0.369149	0.379149	0.389149
12.580000	0.266700	0.884433	0.391293	0.371293	0.381293	0.391293
12.590000	0.560000	1.329060	0.393437	0.373437	0.383437	0.393437
12.600000	0.480000	1.170299	0.395581	0.375581	0.385581	0.395581
12.610000	0.666700	1.398412	0.397726	0.377726	0.387726	0.397726
12.620000	0.533300	1.146977	0.399870	0.379870	0.389870	0.399870
12.630000	0.586700	1.255318	0.402014	0.382014	0.392014	0.402014
12.640000	0.613300	1.384614	0.404159	0.384158	0.394159	0.404159
12.650000	0.400000	1.083205	0.406303	0.386302	0.396303	0.406303
12.660000	0.666700	1.543445	0.408448	0.388447	0.398448	0.408448
12.670000	0.640000	1.228983	0.410593	0.390591	0.400593	0.410593
12.680000	0.746700	1.415093	0.412739	0.392735	0.402739	0.412739
12.690000	0.693300	1.441974	0.414885	0.394879	0.404885	0.414885
12.700000	0.506700	1.310199	0.417033	0.397023	0.407033	0.417033
12.710000	0.693300	1.441974	0.419182	0.399168	0.409182	0.419182
12.720000	0.480000	1.123803	0.421333	0.401312	0.411333	0.421333
12.730000	0.746700	1.337593	0.423487	0.403456	0.413487	0.423487
12.740000	0.453300	1.010522	0.425645	0.405600	0.415645	0.425645
12.750000	0.773300	1.492857	0.427809	0.407744	0.417809	0.427809
12.760000	0.346700	0.824513	0.429981	0.409889	0.419981	0.429981
12.770000	0.666700	1.472715	0.432164	0.412033	0.422164	0.432164
12.780000	0.773300	1.693701	0.434361	0.414177	0.424361	0.434361
12.790000	0.693300	1.404501	0.436576	0.416321	0.426576	0.436576
12.800000	0.613300	1.130113	0.438815	0.418465	0.428815	0.438815
12.810000	0.720000	1.717052	0.441085	0.420610	0.431085	0.441085
12.820000	0.880000	1.469331	0.443394	0.422754	0.433394	0.443394
12.830000	0.453300	1.158083	0.445752	0.424898	0.435752	0.445752
12.840000	0.666700	1.236482	0.448171	0.427042	0.438171	0.448171
12.850000	0.560000	1.202664	0.450664	0.429187	0.440664	0.450664
12.860000	0.613300	1.130113	0.453247	0.431331	0.443247	0.453247
12.870000	1.093000	1.471266	0.455940	0.433475	0.445940	0.455940
12.880000	0.773300	1.260406	0.458762	0.435619	0.448762	0.458762
12.890000	0.720000	1.114271	0.461737	0.437763	0.451737	0.461737
12.900000	0.693300	1.199704	0.464891	0.439908	0.454891	0.464891
12.910000	0.800000	1.531883	0.468252	0.442052	0.458252	0.468252
12.920000	0.800000	1.531883	0.471850	0.444196	0.461850	0.471850
12.930000	0.613300	1.263786	0.475718	0.446340	0.465718	0.475718
12.940000	0.666700	1.359739	0.479891	0.448484	0.469891	0.479891
12.950000	1.040000	1.578523	0.484405	0.450629	0.474405	0.484405
12.960000	0.853300	1.502827	0.489299	0.452773	0.479299	0.489299
12.970000	1.227000	1.661913	0.494610	0.454917	0.484610	0.494610
12.980000	0.960000	1.611955	0.500378	0.457061	0.490378	0.500378
12.990000	0.746700	1.488564	0.506645	0.459205	0.496645	0.506645
13.000000	0.800000	1.460593	0.513450	0.461350	0.503450	0.513450
13.010000	0.986700	1.612396	0.520834	0.463494	0.510834	0.520834
13.020000	0.880000	1.432573	0.528837	0.465638	0.518837	0.528837
13.030000	1.040000	1.886372	0.537499	0.467782	0.527499	0.537499
13.040000	1.333000	2.536840	0.546858	0.469926	0.536858	0.546858
13.050000	1.147000	1.823501	0.556951	0.472071	0.546951	0.556951
13.060000	1.280000	1.949769	0.567817	0.474215	0.557817	0.567817
13.070000	0.933300	1.508494	0.579491	0.476359	0.569491	0.579491
13.080000	0.880000	1.469331	0.592007	0.478503	0.582007	0.592007
13.090000	0.933300	1.828175	0.605400	0.480647	0.595400	0.605400
13.100000	1.173000	1.636039	0.619700	0.482792	0.609700	0.619700
13.110000	1.120000	1.766050	0.634941	0.484936	0.624941	0.634941
13.120000	1.173000	1.791635	0.651151	0.487080	0.641151	0.651151
13.130000	1.333000	2.022100	0.668360	0.489224	0.658360	0.668360
13.140000	0.853300	1.537906	0.686597	0.491368	0.676597	0.686597
13.150000	0.800000	1.600000	0.705888	0.493513	0.695888	0.705888
13.160000	0.933300	1.319933	0.726261	0.495657	0.716261	0.726261
13.170000	1.147000	1.936962	0.747741	0.497801	0.737741	0.747741
13.180000	1.493000	2.288367	0.770352	0.499945	0.760352	0.770352
13.190000	1.200000	1.932184	0.794121	0.502089	0.784121	0.794121
13.200000	1.013000	1.858267	0.819069	0.504234	0.809069	0.819069
13.210000	1.120000	1.795996	0.845221	0.506378	0.835221	0.845221
13.220000	1.307000	1.832836	0.872600	0.508522	0.862600	0.872600
13.230000	1.227000	1.596441	0.901227	0.510666	0.891227	0.901227
13.240000	1.333000	2.174601	0.931125	0.512810	0.921125	0.931125
13.250000	1.360000	2.017523	0.962314	0.514955	0.952314	0.962314
13.260000	1.387000	2.012583	0.994817	0.517099	0.984817	0.994817
13.270000	1.600000	2.141650	1.028653	0.519243	1.018653	1.028653
13.280000	1.147000	1.852518	1.063842	0.521387	1.053842	1.063842
13.290000	1.040000	1.708333	1.100406	0.523532	1.090406	1.100406
13.300000	1.520000	2.211244	1.138363	0.525676	1.128363	1.138363
13.310000	1.253000	2.059730	1.177732	0.527820	1.167732	1.177732
13.320000	1.467000	2.515728	1.218534	0.529964	1.208534	1.218534
13.330000	1.627000	2.302308	1.260787	0.532108	1.250787	1.260787
13.340000	1.253000	1.869712	1.304509	0.534253	1.294509	1.304509
13.350000	1.413000	1.869712	1.349718	0.536397	1.339718	1.349718
13.360000	1.840000	2.135665	1.396433	0.538541	1.386433	1.396433
13.370000	1.787000	2.664799	1.444672	0.540685	1.434672	1.444672
13.380000	1.787000	2.276215	1.494452	0.542829	1.484452	1.494452
13.390000	1.760000	1.875029	1.545791	0.544974	1.535791	1.545791
13.400000	1.893000	2.188292	1.598706	0.547118	1.588706	1.598706
13.410000	1.760000	2.308477	1.653214	0.549262	1.643214	1.653214
13.420000	2.027000	2.026316	1.709331	0.551406	1.699331	1.709331
13.430000	2.160000	2.688444	1.767075	0.553550	1.757075	1.767075
13.440000	1.867000	1.968643	1.826462	0.555695	1.816462	1.826462
13.450000	2.293000	2.415358	1.887509	0.557839	1.877509	1.887509
13.460000	1.973000	2.602426	1.950231	0.559983	1.940231	1.950231
13.470000	1.867000	2.699794	2.014644	0.562127	2.004644	2.014644
13.480000	2.720000	2.840469	2.080765	0.564271	2.070765	2.080765
13.490000	2.080000	2.319540	2.148609	0.566416	2.138609	2.148609
13.500000	2.373000	2.726528	2.218192	0.568560	2.208192	2.218192
13.510000	2.560000	2.644441	2.289529	0.570704	2.279529	2.289529
13.520000	2.240000	2.443167	2.362635	0.572848	2.352635	2.362635
13.530000	3.040000	2.495008	2.437526	0.574992	2.427526	2.437526
13.540000	2.533000	2.834706	2.514216	0.577137	2.504216	2.514216
13.550000	2.587000	2.842972	2.592721	0.579281	2.582721	2.592721
13.560000	2.453000	2.541880	2.673054	0.581425	2.663054	2.673054
13.570000	3.333000	3.069564	2.755232	0.583569	2.745232	2.755232
13.580000	2.587000	2.880247	2.839268	0.585713	2.829268	2.839268
13.590000	3.280000	3.340898	2.925177	0.587858	2.915177	2.925177
13.600000	2.773000	3.096550	3.012973	0.590002	3.002973	3.012973
13.610000	3.387000	2.827924	3.102670	0.592146	3.092670	3.102670
13.620000	3.280000	2.950977	3.194282	0.594290	3.184282	3.194282
13.630000	3.013000	2.872831	3.287824	0.596434	3.277824	3.287824
13.640000	3.280000	2.725485	3.383309	0.598579	3.373309	3.383309
13.650000	3.653000	3.612915	3.480751	0.600723	3.470751	3.480751
13.660000	3.440000	3.371409	3.580163	0.602867	3.570163	3.580163
13.670000	3.147000	3.285091	3.681560	0.605011	3.671560	3.681560
13.680000	2.987000	2.620399	3.784955	0.607155	3.774955	3.784955
13.690000	3.787000	3.418746	3.890361	0.609300	3.880361	3.890361
13.700000	4.160000	4.010121	3.997791	0.611444	3.987791	3.997791
13.710000	3.867000	3.351948	4.107259	0.613588	4.097259	4.107259
13.720000	4.373000	3.969125	4.218777	0.615732	4.208777	4.218777
13.730000	4.347000	3.671488	4.332360	0.617877	4.322360	4.332360
