# Energy shift = 0.8
# a_3: -680.069988 +- 0.000027, a_2: 158.0109 +- 0.0025, a_1: -12.25 +- 0.11, a_0: 0.3 +- 2.0, domain: [12.8eV ,15.56eV]
# Y-offset = 0.0087+-0.0312, AE = 15.6771+-0.0057, Scale Factor = 31.2869+-0.2512, Alpha = 1.1476+-0.011
# -------------------------------------------------------------
Energy	Counts	Errors	Combined Fit	Fit 1	Fit 2(incl. prev.)
12.800000	6.267000	0.362052	0.354945	0.346269	0.354945
12.810000	0.306700	0.083770	0.357031	0.348355	0.357031
12.820000	0.413300	0.082831	0.359103	0.350427	0.359103
12.830000	0.413300	0.100305	0.361162	0.352486	0.361162
12.840000	0.426700	0.104285	0.363211	0.354535	0.363211
12.850000	0.253300	0.063377	0.365251	0.356575	0.365251
12.860000	0.386700	0.085784	0.367284	0.358608	0.367284
12.870000	0.240000	0.065102	0.369313	0.360637	0.369313
12.880000	0.453300	0.088738	0.371338	0.362662	0.371338
12.890000	0.400000	0.097980	0.373362	0.364686	0.373362
12.900000	0.306700	0.077142	0.375387	0.366711	0.375387
12.910000	0.373300	0.087202	0.377415	0.368739	0.377415
12.920000	0.453300	0.096419	0.379448	0.370772	0.379448
12.930000	0.466700	0.095063	0.381487	0.372811	0.381487
12.940000	0.280000	0.065401	0.383534	0.374858	0.383534
12.950000	0.320000	0.065537	0.385592	0.376916	0.385592
12.960000	0.360000	0.084475	0.387662	0.378985	0.387662
12.970000	0.480000	0.109431	0.389746	0.381069	0.389746
12.980000	0.253300	0.063377	0.391846	0.383170	0.391846
12.990000	0.533300	0.106110	0.393964	0.385287	0.393964
13.000000	0.400000	0.092376	0.396101	0.387425	0.396101
13.010000	0.386700	0.091790	0.398261	0.389585	0.398261
13.020000	0.346700	0.085887	0.400444	0.391768	0.400444
13.030000	0.333300	0.078693	0.402653	0.393977	0.402653
13.040000	0.520000	0.107381	0.404889	0.396213	0.404889
13.050000	0.400000	0.094281	0.407154	0.398478	0.407154
13.060000	0.293300	0.066364	0.409451	0.400775	0.409451
13.070000	0.306700	0.074801	0.411780	0.403104	0.411780
13.080000	0.320000	0.075613	0.414145	0.405469	0.414145
13.090000	0.320000	0.090588	0.416547	0.407871	0.416547
13.100000	0.426700	0.091577	0.418987	0.410311	0.418987
13.110000	0.520000	0.116893	0.421469	0.412793	0.421469
13.120000	0.373300	0.102218	0.423993	0.415317	0.423993
13.130000	0.573300	0.108872	0.426561	0.417885	0.426561
13.140000	0.506700	0.103600	0.429176	0.420500	0.429176
13.150000	0.546700	0.101363	0.431839	0.423163	0.431839
13.160000	0.440000	0.103056	0.434553	0.425877	0.434553
13.170000	0.440000	0.088182	0.437318	0.428642	0.437318
13.180000	0.586700	0.122995	0.440138	0.431462	0.440138
13.190000	0.413300	0.082831	0.443013	0.434337	0.443013
13.200000	0.293300	0.080855	0.445947	0.437271	0.445947
13.210000	0.373300	0.091188	0.448940	0.440264	0.448940
13.220000	0.586700	0.107574	0.451995	0.443319	0.451995
13.230000	0.360000	0.082343	0.455113	0.446437	0.455113
13.240000	0.506700	0.092735	0.458297	0.449621	0.458297
13.250000	0.600000	0.114310	0.461548	0.452872	0.461548
13.260000	0.560000	0.111746	0.464868	0.456192	0.464868
13.270000	0.533300	0.117252	0.468260	0.459583	0.468260
13.280000	0.333300	0.083089	0.471724	0.463048	0.471724
13.290000	0.493300	0.111454	0.475264	0.466587	0.475264
13.300000	0.413300	0.089038	0.478880	0.470204	0.478880
13.310000	0.533300	0.106110	0.482575	0.473899	0.482575
13.320000	0.533300	0.095530	0.486351	0.477675	0.486351
13.330000	0.546700	0.103102	0.490209	0.481533	0.490209
13.340000	0.680000	0.117500	0.494152	0.485475	0.494152
13.350000	0.600000	0.111156	0.498181	0.489505	0.498181
13.360000	0.546700	0.106494	0.502298	0.493622	0.502298
13.370000	0.573300	0.110493	0.506505	0.497829	0.506505
13.380000	0.560000	0.116421	0.510805	0.502129	0.510805
13.390000	0.546700	0.101363	0.515198	0.506522	0.515198
13.400000	0.360000	0.070730	0.519688	0.511012	0.519688
13.410000	0.600000	0.117379	0.524275	0.515599	0.524275
13.420000	0.626700	0.106894	0.528961	0.520285	0.528961
13.430000	0.733300	0.121350	0.533750	0.525074	0.533750
13.440000	0.680000	0.124836	0.538642	0.529965	0.538642
13.450000	0.546700	0.101363	0.543639	0.534963	0.543639
13.460000	0.600000	0.114310	0.548743	0.540067	0.548743
13.470000	0.480000	0.089800	0.553957	0.545280	0.553957
13.480000	0.773300	0.128978	0.559281	0.550605	0.559281
13.490000	0.666700	0.107772	0.564719	0.556043	0.564719
13.500000	0.773300	0.130349	0.570271	0.561595	0.570271
13.510000	0.800000	0.137275	0.575940	0.567264	0.575940
13.520000	0.693300	0.114677	0.581728	0.573052	0.581728
13.530000	0.773300	0.128978	0.587636	0.578960	0.587636
13.540000	0.773300	0.130349	0.593667	0.584991	0.593667
13.550000	0.613300	0.109863	0.599823	0.591147	0.599823
13.560000	0.480000	0.104443	0.606104	0.597428	0.606104
13.570000	0.600000	0.107909	0.612514	0.603838	0.612514
13.580000	0.746700	0.107574	0.619054	0.610377	0.619054
13.590000	0.626700	0.111772	0.625725	0.617049	0.625725
13.600000	0.653300	0.118504	0.632531	0.623855	0.632531
13.610000	0.466700	0.095063	0.639472	0.630796	0.639472
13.620000	0.573300	0.105555	0.646551	0.637875	0.646551
13.630000	0.720000	0.124050	0.653770	0.645094	0.653770
13.640000	0.840000	0.140184	0.661130	0.652454	0.661130
13.650000	0.746700	0.122995	0.668633	0.659957	0.668633
13.660000	0.800000	0.123648	0.676282	0.667606	0.676282
13.670000	0.533300	0.099182	0.684078	0.675402	0.684078
13.680000	0.773300	0.124774	0.692023	0.683347	0.692023
13.690000	0.613300	0.097883	0.700119	0.691443	0.700119
13.700000	0.533300	0.093650	0.708368	0.699692	0.708368
13.710000	0.760000	0.109415	0.716771	0.708095	0.716771
13.720000	0.773300	0.118939	0.725332	0.716656	0.725332
13.730000	0.720000	0.115131	0.734051	0.725375	0.734051
13.740000	0.786700	0.122052	0.742930	0.734254	0.742930
13.750000	0.586700	0.117070	0.751972	0.743296	0.751972
13.760000	0.573300	0.103857	0.761178	0.752502	0.761178
13.770000	0.800000	0.133333	0.770550	0.761874	0.770550
13.780000	1.080000	0.149226	0.780090	0.771414	0.780090
13.790000	0.760000	0.140690	0.789801	0.781125	0.789801
13.800000	0.640000	0.107199	0.799683	0.791007	0.799683
13.810000	1.027000	0.140775	0.809739	0.801063	0.809739
13.820000	0.826700	0.128148	0.819970	0.811294	0.819970
13.830000	0.706700	0.114909	0.830380	0.821704	0.830380
13.840000	0.853300	0.129747	0.840968	0.832292	0.840968
13.850000	0.680000	0.108041	0.851739	0.843063	0.851739
13.860000	0.680000	0.121954	0.862692	0.854016	0.862692
13.870000	0.760000	0.123173	0.873831	0.865155	0.873831
13.880000	1.013000	0.143290	0.885156	0.876480	0.885156
13.890000	1.040000	0.139485	0.896671	0.887995	0.896671
13.900000	0.840000	0.125461	0.908377	0.899701	0.908377
13.910000	0.840000	0.122594	0.920275	0.911599	0.920275
13.920000	0.653300	0.118504	0.932368	0.923692	0.932368
13.930000	1.160000	0.172067	0.944658	0.935982	0.944658
13.940000	0.826700	0.136218	0.957146	0.948470	0.957146
13.950000	0.946700	0.145690	0.969835	0.961159	0.969835
13.960000	0.880000	0.127164	0.982726	0.974050	0.982726
13.970000	1.160000	0.147597	0.995821	0.987145	0.995821
13.980000	0.933300	0.145653	1.009122	1.000446	1.009122
13.990000	0.893300	0.135367	1.022631	1.013955	1.022631
14.000000	0.960000	0.136912	1.036350	1.027674	1.036350
14.010000	0.973300	0.139506	1.050281	1.041605	1.050281
14.020000	1.093000	0.149175	1.064426	1.055750	1.064426
14.030000	1.013000	0.151727	1.078786	1.070110	1.078786
14.040000	0.920000	0.140640	1.093364	1.084688	1.093364
14.050000	0.986700	0.146965	1.108161	1.099485	1.108161
14.060000	1.267000	0.166977	1.123179	1.114503	1.123179
14.070000	0.826700	0.125343	1.138421	1.129745	1.138421
14.080000	0.866700	0.132553	1.153888	1.145212	1.153888
14.090000	0.933300	0.151633	1.169582	1.160906	1.169582
14.100000	1.227000	0.148218	1.185504	1.176828	1.185504
14.110000	1.360000	0.152397	1.201658	1.192982	1.201658
14.120000	1.093000	0.146772	1.218044	1.209368	1.218044
14.130000	1.107000	0.150302	1.234665	1.225989	1.234665
14.140000	1.307000	0.181829	1.251522	1.242846	1.251522
14.150000	1.333000	0.164023	1.268618	1.259942	1.268618
14.160000	1.173000	0.164586	1.285954	1.277278	1.285954
14.170000	1.173000	0.162411	1.303533	1.294856	1.303533
14.180000	1.213000	0.140976	1.321355	1.312679	1.321355
14.190000	1.293000	0.166679	1.339423	1.330747	1.339423
14.200000	1.827000	0.213281	1.357740	1.349064	1.357740
14.210000	1.480000	0.183235	1.376306	1.367630	1.376306
14.220000	1.547000	0.167753	1.395124	1.386448	1.395124
14.230000	1.440000	0.171912	1.414195	1.405519	1.414195
14.240000	1.600000	0.187617	1.433523	1.424846	1.433523
14.250000	1.480000	0.151355	1.453107	1.444431	1.453107
14.260000	1.560000	0.171653	1.472951	1.464275	1.472951
14.270000	1.587000	0.164705	1.493056	1.484380	1.493056
14.280000	1.387000	0.185661	1.513424	1.504748	1.513424
14.290000	1.453000	0.162094	1.534057	1.525381	1.534057
14.300000	1.587000	0.171059	1.554957	1.546281	1.554957
14.310000	1.613000	0.172507	1.576126	1.567450	1.576126
14.320000	1.640000	0.168729	1.597566	1.588890	1.597566
14.330000	1.853000	0.199641	1.619278	1.610602	1.619278
14.340000	1.827000	0.208219	1.641265	1.632589	1.641265
14.350000	1.453000	0.166423	1.663529	1.654852	1.663529
14.360000	1.533000	0.170142	1.686070	1.677394	1.686070
14.370000	1.773000	0.180406	1.708892	1.700216	1.708892
14.380000	1.933000	0.197240	1.731996	1.723320	1.731996
14.390000	1.800000	0.198438	1.755384	1.746708	1.755384
14.400000	1.587000	0.186949	1.779058	1.770382	1.779058
14.410000	1.840000	0.198232	1.803020	1.794344	1.803020
14.420000	2.067000	0.192681	1.827271	1.818595	1.827271
14.430000	1.733000	0.189189	1.851815	1.843138	1.851815
14.440000	1.800000	0.184511	1.876651	1.867975	1.876651
14.450000	1.853000	0.181937	1.901783	1.893107	1.901783
14.460000	2.280000	0.207444	1.927213	1.918537	1.927213
14.470000	2.320000	0.207487	1.952942	1.944266	1.952942
14.480000	1.760000	0.168570	1.978972	1.970296	1.978972
14.490000	1.973000	0.207407	2.005305	1.996628	2.005305
14.500000	2.013000	0.217048	2.031942	2.023266	2.031942
14.510000	2.400000	0.214994	2.058887	2.050211	2.058887
14.520000	2.320000	0.223968	2.086141	2.077465	2.086141
14.530000	2.413000	0.233464	2.113705	2.105029	2.113705
14.540000	2.360000	0.221566	2.141582	2.132905	2.141582
14.550000	2.227000	0.192792	2.169773	2.161097	2.169773
14.560000	2.133000	0.188247	2.198280	2.189604	2.198280
14.570000	2.320000	0.221574	2.227106	2.218430	2.227106
14.580000	2.413000	0.234224	2.256252	2.247576	2.256252
14.590000	2.307000	0.211439	2.285720	2.277044	2.285720
14.600000	1.920000	0.198555	2.315512	2.306836	2.315512
14.610000	2.307000	0.201096	2.345629	2.336953	2.345629
14.620000	2.267000	0.191988	2.376075	2.367399	2.376075
14.630000	2.867000	0.252572	2.406850	2.398174	2.406850
14.640000	2.387000	0.206298	2.437957	2.429281	2.437957
14.650000	2.333000	0.191756	2.469397	2.460721	2.469397
14.660000	2.547000	0.234679	2.501172	2.492496	2.501172
14.670000	2.787000	0.236941	2.533285	2.524609	2.533285
14.680000	2.573000	0.218550	2.565737	2.557061	2.565737
14.690000	2.640000	0.237258	2.598530	2.589854	2.598530
14.700000	3.200000	0.266667	2.631666	2.622990	2.631666
14.710000	2.640000	0.229643	2.665147	2.656471	2.665147
14.720000	2.867000	0.229718	2.698975	2.690299	2.698975
14.730000	2.933000	0.260370	2.733151	2.724475	2.733151
14.740000	2.893000	0.217898	2.767678	2.759002	2.767678
14.750000	2.920000	0.244135	2.802557	2.793881	2.802557
14.760000	2.987000	0.242026	2.837791	2.829115	2.837791
14.770000	3.027000	0.253499	2.873381	2.864705	2.873381
14.780000	2.960000	0.214762	2.909329	2.900653	2.909329
14.790000	2.747000	0.240405	2.945637	2.936961	2.945637
14.800000	3.040000	0.219672	2.982307	2.973631	2.982307
14.810000	3.227000	0.226891	3.019341	3.010665	3.019341
14.820000	3.400000	0.254907	3.056741	3.048065	3.056741
14.830000	3.107000	0.240397	3.094508	3.085832	3.094508
14.840000	3.160000	0.255965	3.132645	3.123969	3.132645
14.850000	2.853000	0.250402	3.171154	3.162478	3.171154
14.860000	3.053000	0.259707	3.210036	3.201360	3.210036
14.870000	3.320000	0.239132	3.249293	3.240617	3.249293
14.880000	2.973000	0.229191	3.288927	3.280251	3.288927
14.890000	3.347000	0.271618	3.328941	3.320265	3.328941
14.900000	3.240000	0.239013	3.369335	3.360659	3.369335
14.910000	3.400000	0.262467	3.410112	3.401436	3.410112
14.920000	4.093000	0.288035	3.451275	3.442598	3.451275
14.930000	2.960000	0.245652	3.492823	3.484147	3.492823
14.940000	4.000000	0.286589	3.534761	3.526085	3.534761
14.950000	3.627000	0.261542	3.577088	3.568412	3.577088
14.960000	3.920000	0.273824	3.619809	3.611133	3.619809
14.970000	3.107000	0.240397	3.662923	3.654247	3.662923
14.980000	3.560000	0.296270	3.706434	3.697758	3.706434
14.990000	3.613000	0.256954	3.750343	3.741666	3.750343
15.000000	3.573000	0.265053	3.794651	3.785975	3.794651
15.010000	3.867000	0.259686	3.839362	3.830686	3.839362
15.020000	4.533000	0.308497	3.884476	3.875800	3.884476
15.030000	3.627000	0.297179	3.929997	3.921320	3.929997
15.040000	3.627000	0.301927	3.975924	3.967248	3.975924
15.050000	4.107000	0.296820	4.022262	4.013585	4.022262
15.060000	3.827000	0.302838	4.069011	4.060334	4.069011
15.070000	4.360000	0.307575	4.116173	4.107496	4.116173
15.080000	4.427000	0.292476	4.163751	4.155073	4.163751
15.090000	4.280000	0.284116	4.211745	4.203067	4.211745
15.100000	3.453000	0.267928	4.260160	4.251480	4.260160
15.110000	4.040000	0.258178	4.308996	4.300314	4.308996
15.120000	5.040000	0.337689	4.358255	4.349571	4.358255
15.130000	4.560000	0.305866	4.407940	4.399252	4.407940
15.140000	4.387000	0.274354	4.458054	4.449361	4.458054
15.150000	4.480000	0.274990	4.508598	4.499897	4.508598
15.160000	4.467000	0.299580	4.559575	4.550864	4.559575
15.170000	4.840000	0.311709	4.610989	4.602264	4.610989
15.180000	4.413000	0.306549	4.662843	4.654097	4.662843
15.190000	5.013000	0.290744	4.715141	4.706367	4.715141
15.200000	4.920000	0.318122	4.767888	4.759075	4.767888
15.210000	4.333000	0.278674	4.821088	4.812222	4.821088
15.220000	5.480000	0.334892	4.874751	4.865811	4.874751
15.230000	4.653000	0.308975	4.928882	4.919845	4.928882
15.240000	5.213000	0.325998	4.983494	4.974323	4.983494
15.250000	4.987000	0.347049	5.038597	5.029249	5.038597
15.260000	5.013000	0.345509	5.094209	5.084625	5.094209
15.270000	4.973000	0.325910	5.150350	5.140452	5.150350
15.280000	4.747000	0.346434	5.207042	5.196732	5.207042
15.290000	5.333000	0.328047	5.264316	5.253467	5.264316
15.300000	4.947000	0.292542	5.322211	5.310659	5.322211
15.310000	4.973000	0.286426	5.380770	5.368311	5.380770
15.320000	5.600000	0.354275	5.440051	5.426423	5.440051
15.330000	5.200000	0.310412	5.500120	5.484997	5.500120
15.340000	5.267000	0.330073	5.561062	5.544037	5.561062
15.350000	5.933000	0.378731	5.622974	5.603542	5.622974
15.360000	5.347000	0.358514	5.685977	5.663517	5.685977
15.370000	5.707000	0.349927	5.750209	5.723961	5.750209
15.380000	5.733000	0.332354	5.815840	5.784878	5.815840
15.390000	5.600000	0.336254	5.883063	5.846269	5.883063
15.400000	6.200000	0.388158	5.952108	5.908136	5.952108
15.410000	6.000000	0.313829	6.023238	5.970481	6.023238
15.420000	5.933000	0.369223	6.096757	6.033305	6.096757
15.430000	5.720000	0.343591	6.173011	6.096612	6.173011
15.440000	6.160000	0.374531	6.252394	6.160402	6.252394
15.450000	5.933000	0.367292	6.335347	6.224677	6.335347
15.460000	6.400000	0.346153	6.422365	6.289440	6.422365
15.470000	6.667000	0.354610	6.513994	6.354692	6.513994
15.480000	6.587000	0.374544	6.610836	6.420436	6.610836
15.490000	6.880000	0.401544	6.713551	6.486672	6.713551
15.500000	5.893000	0.347070	6.822848	6.553404	6.822848
15.510000	6.947000	0.406042	6.939493	6.620633	6.939493
15.520000	6.813000	0.347740	7.064301	6.688360	7.064301
15.530000	6.813000	0.336833	7.198132	6.756588	7.198132
15.540000	7.093000	0.379280	7.341887	6.825319	7.341887
15.550000	6.840000	0.357408	7.496498	6.894554	7.496498
15.560000	8.040000	0.392131	7.662927	6.964296	7.662927
15.570000	8.040000	0.443609	7.842147	7.034546	7.842147
15.580000	7.667000	0.385708	8.035142	7.105306	8.035142
15.590000	8.387000	0.430275	8.242887	7.176579	8.242887
15.600000	8.280000	0.420806	8.466341	7.248365	8.466341
15.610000	8.253000	0.400576	8.706436	7.320668	8.706436
15.620000	8.480000	0.404719	8.964060	7.393488	8.964060
15.630000	9.587000	0.425121	9.240049	7.466828	9.240049
15.640000	9.787000	0.444681	9.535172	7.540690	9.535172
15.650000	10.640000	0.441138	9.850124	7.615075	9.850124
15.660000	11.050000	0.455562	10.185511	7.689986	10.185511
15.670000	10.450000	0.481164	10.541846	7.765424	10.541846
15.680000	11.190000	0.445859	10.919540	7.841391	10.919540
15.690000	11.430000	0.490020	11.318894	7.917889	11.318894
15.700000	12.490000	0.484401	11.740100	7.994920	11.740100
15.710000	12.720000	0.490000	12.183236	8.072487	12.183236
15.720000	13.280000	0.536418	12.648270	8.150590	12.648270
15.730000	13.800000	0.599185	13.135058	8.229232	13.135058
15.740000	14.640000	0.559784	13.643349	8.308415	13.643349
15.750000	15.520000	0.524487	14.172794	8.388140	14.172794
15.760000	15.070000	0.581085	14.722951	8.468409	14.722951
15.770000	15.950000	0.575329	15.293294	8.549225	15.293294
15.780000	16.320000	0.481139	15.883223	8.630589	15.883223
15.790000	16.560000	0.633051	16.492074	8.712504	16.492074
15.800000	17.210000	0.579623	17.119132	8.794970	17.119132
15.810000	17.530000	0.612584	17.763638	8.877991	17.763638
15.820000	18.920000	0.619284	18.424807	8.961567	18.424807
15.830000	19.350000	0.617809	19.101832	9.045701	19.101832
15.840000	20.800000	0.607216	19.793898	9.130394	19.793898
15.850000	20.590000	0.641262	20.500191	9.215650	20.500191
15.860000	22.960000	0.676125	21.219907	9.301468	21.219907
15.870000	21.650000	0.664997	21.952259	9.387852	21.952259
15.880000	23.930000	0.681545	22.696485	9.474803	22.696485
15.890000	22.970000	0.686566	23.451852	9.562324	23.451852
15.900000	25.390000	0.694856	24.217660	9.650415	24.217660
15.910000	24.480000	0.624729	24.993249	9.739080	24.993249
15.920000	25.950000	0.672229	25.777997	9.828319	25.777997
15.930000	27.200000	0.734907	26.571325	9.918135	26.571325
15.940000	26.890000	0.829573	27.372694	10.008530	27.372694
15.950000	28.410000	0.791577	28.181607	10.099505	28.181607
15.960000	29.040000	0.730229	28.997610	10.191063	28.997610
15.970000	29.720000	0.754726	29.820285	10.283205	29.820285
15.980000	31.720000	0.805764	30.649254	10.375933	30.649254
15.990000	31.120000	0.852600	31.484173	10.469250	31.484173
16.000000	31.270000	0.853420	32.324731	10.563157	32.324731
16.010000	32.710000	0.786811	33.170650	10.657655	33.170650
16.020000	32.280000	0.795997	34.021678	10.752748	34.021678
16.030000	33.970000	0.858316	34.877588	10.848436	34.877588
16.040000	34.010000	0.882320	35.738178	10.944722	35.738178
16.050000	33.870000	0.764238	36.603264	11.041607	36.603264
16.060000	34.530000	0.839188	37.472685	11.139094	37.472685
16.070000	36.400000	0.850203	38.346292	11.237185	38.346292
16.080000	38.030000	1.006466	39.223953	11.335880	39.223953
16.090000	39.440000	0.839708	40.105547	11.435183	40.105547
16.100000	38.440000	0.908013	40.990968	11.535095	40.990968
16.110000	40.810000	0.867609	41.880115	11.635618	41.880115
16.120000	41.230000	0.946908	42.772900	11.736754	42.772900
16.130000	42.330000	0.958780	43.669238	11.838504	43.669238
16.140000	42.120000	0.907496	44.569056	11.940872	44.569056
16.150000	42.890000	0.978077	45.472283	12.043857	45.472283
16.160000	45.650000	1.043881	46.378853	12.147464	46.378853
16.170000	45.370000	0.851485	47.288707	12.251692	47.288707
16.180000	48.470000	1.136453	48.201789	12.356545	48.201789
16.190000	48.520000	0.961930	49.118044	12.462024	49.118044
